collect.....= UnicornPy_2020.01.07.1
device......= UN-2019.05.51
samplerate..= 250.000
channels....= 16
date........= 2020-01-09T13:29:30.525524
filename....= recordeddata
FZ, C3, CZ, C4, PZ, O1, OZ, O2, AccelX, AccelY, AccelZ, GyroX, GyroY, GyroZ, Battery, Sample
43508.926,198242.547,37173.637,223559.125,193933.047,9095.998,7302.673,187730.172,0.008,1.010,0.099,0.000,0.000,0.000,66.667,1.000
27291.393,30520.057,-4813.761,66.429,75916.273,-5531.968,-1276.732,115469.383,0.006,1.016,0.092,0.000,0.000,0.000,66.667,2.000
14078.292,3171.355,-8555.443,2.503,10731.878,3354.282,-5483.688,56480.359,0.005,1.017,0.092,0.000,0.000,0.000,66.667,3.000
6632.299,1123.488,-9972.901,153.869,-3825.993,508.100,-4699.946,25570.754,0.003,1.018,0.089,0.000,0.000,0.000,66.667,4.000
3815.801,455.350,-11673.154,1115.799,-4414.202,665.546,-4300.744,15676.441,0.001,1.021,0.090,0.000,0.000,0.000,66.667,5.000
2596.468,458.479,-10547.968,2091.855,-1789.570,2848.328,-2935.768,12485.327,0.003,1.020,0.085,-1.984,-0.519,-3.082,66.667,6.000
1563.818,1017.720,-5403.758,2883.465,1025.141,3498.316,-961.930,7504.554,0.001,1.020,0.084,-0.732,1.099,-0.519,66.667,7.000
678.510,2143.443,-1023.799,3612.400,3013.820,3295.184,752.092,1698.375,0.001,1.020,0.084,-0.641,1.526,0.031,66.667,8.000
1537.443,2390.206,717.849,3139.705,3200.144,3159.464,1590.818,1743.704,0.002,1.020,0.085,-0.671,1.770,0.214,66.667,9.000
2099.812,2382.785,1795.829,3036.351,3161.342,3086.150,2193.243,2286.852,0.002,1.019,0.083,-0.610,1.801,0.275,66.667,10.000
2363.831,2849.669,2407.372,3130.764,3130.138,3115.923,2616.406,2645.374,0.002,1.019,0.086,-0.549,1.831,0.305,66.667,11.000
2548.188,3075.958,2705.455,3220.976,3124.953,3168.405,2867.103,2851.636,0.002,1.020,0.087,-0.488,1.648,0.336,66.667,12.000
2653.063,3164.650,2835.185,3263.444,3109.932,3188.968,3007.562,2966.166,0.002,1.020,0.087,-0.549,1.740,0.458,66.667,13.000
2600.402,3169.388,2858.699,3241.718,3023.118,3119.320,3069.699,3004.790,0.003,1.017,0.087,-0.519,1.862,0.549,66.667,14.000
2509.565,3105.909,2809.436,3175.110,2852.887,2914.131,3088.028,2944.261,-0.000,1.018,0.087,-0.641,1.801,0.610,66.667,15.000
2760.441,3213.108,2884.627,3308.863,2962.500,2973.676,3174.305,2990.753,0.000,1.019,0.086,-0.641,1.801,0.641,66.667,16.000
3043.861,3245.384,3392.458,3445.834,3170.282,3241.271,3333.450,3195.495,0.001,1.018,0.084,-0.641,1.801,0.610,66.667,17.000
3270.150,3383.518,3424.913,3413.022,3340.960,3457.905,3437.788,3358.752,0.001,1.019,0.084,-0.519,1.801,0.580,66.667,18.000
3491.164,3537.030,3404.886,3497.780,3484.816,3622.681,3476.859,3525.317,0.002,1.020,0.085,-0.671,1.740,0.641,66.667,19.000
3570.557,3579.766,3519.238,3579.230,3573.687,3567.607,3552.408,3559.739,0.004,1.021,0.085,-0.610,1.648,0.549,66.667,20.000
3601.135,3603.459,3563.494,3585.578,3601.045,3589.780,3570.647,3575.832,0.002,1.021,0.085,-0.732,1.770,0.702,66.667,21.000
3619.105,3617.317,3580.124,3585.846,3608.823,3598.631,3581.018,3586.382,0.003,1.019,0.087,-0.732,1.770,0.702,66.667,22.000
3629.119,3626.258,3589.869,3586.472,3610.254,3601.045,3588.439,3592.641,0.003,1.019,0.086,-0.732,1.740,0.671,66.667,23.000
3635.109,3629.566,3596.038,3587.545,3609.539,3601.582,3592.909,3597.200,0.003,1.018,0.085,-0.763,1.862,0.763,66.667,24.000
3638.328,3630.371,3600.062,3588.528,3608.823,3601.403,3595.144,3600.688,0.003,1.018,0.086,-0.641,1.770,0.610,66.667,25.000
3639.669,3628.761,3601.760,3589.601,3608.198,3601.850,3596.932,3603.012,0.001,1.019,0.086,-0.458,1.831,0.610,66.667,26.000
3640.473,3627.152,3604.889,3591.836,3608.823,3602.207,3597.826,3605.068,0.002,1.018,0.086,-0.580,1.862,0.549,66.667,27.000
3639.758,3624.917,3607.035,3593.356,3609.002,3603.370,3599.167,3608.287,0.003,1.019,0.086,-0.580,1.740,0.488,66.667,28.000
3638.954,3622.860,3608.734,3596.128,3610.790,3604.621,3600.777,3609.986,0.002,1.020,0.086,-0.580,1.740,0.366,66.667,29.000
3638.238,3622.234,3610.165,3598.273,3612.847,3606.856,3603.370,3611.863,0.003,1.021,0.086,-0.671,1.801,0.275,66.667,30.000
3637.344,3622.324,3611.953,3600.688,3614.992,3609.628,3605.337,3613.741,0.002,1.020,0.088,-0.824,1.801,0.305,66.667,31.000
3636.540,3621.698,3614.098,3602.476,3616.065,3610.075,3606.678,3615.082,0.002,1.020,0.086,-0.702,1.831,0.244,66.667,32.000
3635.377,3621.519,3616.602,3604.800,3617.675,3611.684,3608.376,3616.602,0.001,1.020,0.086,-0.549,1.892,0.305,66.667,33.000
3635.377,3621.787,3617.496,3606.409,3619.731,3614.277,3610.612,3618.569,0.001,1.019,0.087,-0.427,1.953,0.366,66.667,34.000
3635.198,3621.519,3618.658,3608.287,3621.430,3616.959,3612.310,3619.731,0.002,1.022,0.085,-0.488,1.892,0.427,66.667,35.000
3635.377,3621.698,3620.178,3609.986,3622.145,3618.569,3613.204,3621.072,0.001,1.021,0.086,-0.427,1.862,0.458,66.667,36.000
3635.377,3621.698,3622.234,3610.790,3623.754,3620.357,3615.350,3621.966,0.001,1.020,0.086,-0.458,1.678,0.458,66.667,37.000
3635.288,3622.413,3622.860,3612.400,3625.095,3621.430,3616.155,3623.218,0.000,1.020,0.087,-0.458,1.740,0.488,66.667,38.000
3635.198,3623.576,3624.201,3613.830,3625.900,3623.039,3617.228,3623.844,-0.000,1.021,0.086,-0.488,1.740,0.519,66.667,39.000
3635.824,3624.380,3625.721,3614.367,3627.152,3624.648,3618.837,3625.095,0.001,1.021,0.087,-0.397,1.709,0.458,66.667,40.000
3637.344,3624.648,3626.615,3615.708,3628.672,3625.542,3620.357,3626.347,0.003,1.022,0.087,-0.519,1.801,0.549,66.667,41.000
3637.255,3625.364,3627.510,3616.781,3629.387,3627.062,3621.519,3627.331,0.003,1.021,0.085,-0.519,1.770,0.610,66.667,42.000
3637.613,3626.347,3628.851,3617.854,3630.102,3628.046,3622.681,3628.493,0.003,1.021,0.086,-0.580,1.740,0.519,66.667,43.000
3638.685,3627.152,3630.013,3619.105,3631.354,3629.029,3624.023,3629.119,0.000,1.021,0.083,-0.610,1.678,0.549,66.667,44.000
3639.401,3628.404,3631.533,3620.089,3632.427,3630.460,3624.827,3630.013,0.001,1.021,0.084,-0.671,1.709,0.641,66.667,45.000
3640.116,3629.119,3632.427,3620.715,3633.053,3631.443,3625.721,3631.533,0.002,1.021,0.087,-0.793,1.709,0.610,66.667,46.000
3641.457,3630.371,3633.231,3621.072,3633.142,3631.890,3626.884,3632.248,0.003,1.019,0.085,-0.793,1.648,0.580,66.667,47.000
3642.351,3630.996,3634.394,3621.251,3634.125,3633.321,3627.867,3632.784,0.001,1.019,0.085,-0.824,1.709,0.641,66.667,48.000
3642.977,3631.533,3635.556,3622.413,3634.304,3634.215,3629.119,3633.768,0.000,1.020,0.086,-0.763,1.678,0.671,66.667,49.000
3643.692,3632.337,3636.450,3623.576,3635.198,3634.662,3629.745,3633.768,0.004,1.018,0.087,-0.641,1.648,0.641,66.667,50.000
3644.407,3633.142,3636.987,3624.291,3635.914,3635.198,3630.192,3634.483,0.005,1.019,0.087,-0.702,1.740,0.610,66.667,51.000
3644.497,3633.768,3637.791,3624.201,3636.808,3636.093,3630.907,3635.556,0.004,1.018,0.088,-0.702,1.770,0.641,66.667,52.000
3645.927,3634.215,3638.507,3625.274,3637.434,3637.166,3632.248,3636.271,0.001,1.019,0.086,-0.671,1.831,0.702,66.667,53.000
3646.643,3635.109,3639.401,3625.811,3637.613,3637.970,3632.516,3637.255,0.004,1.019,0.089,-0.610,1.831,0.671,66.667,54.000
3647.000,3636.093,3639.848,3626.258,3637.881,3638.149,3633.231,3637.881,0.004,1.018,0.087,-0.458,1.831,0.519,66.667,55.000
3647.626,3636.719,3640.473,3626.705,3638.775,3638.685,3634.215,3637.702,0.004,1.018,0.086,-0.458,1.740,0.397,66.667,56.000
3648.520,3636.987,3641.010,3627.510,3639.132,3638.417,3634.662,3638.328,0.004,1.017,0.084,-0.427,1.740,0.427,66.667,57.000
3648.520,3636.987,3642.262,3627.867,3639.222,3639.222,3634.930,3638.954,0.006,1.020,0.085,-0.366,1.831,0.397,66.667,58.000
3649.504,3637.702,3642.798,3628.404,3640.026,3639.937,3635.646,3639.401,0.003,1.020,0.086,-0.336,1.923,0.336,66.667,59.000
2404.333,2393.782,2398.074,2383.679,2395.481,2394.945,2391.458,2395.034,0.002,1.019,0.087,-0.336,1.862,0.183,66.667,60.000
-2586.008,-2593.607,-2590.567,-2604.694,-2591.998,-2594.770,-2597.630,-2593.875,0.002,1.020,0.086,-0.427,1.831,0.092,66.667,61.000
-3835.202,-3842.354,-3839.583,-3853.530,-3841.013,-3844.143,-3847.272,-3842.891,0.003,1.021,0.088,-0.427,1.831,0.153,66.667,62.000
-3834.844,-3841.997,-3839.672,-3853.799,-3840.566,-3843.159,-3846.288,-3842.444,0.001,1.021,0.085,-0.488,1.831,0.214,66.667,63.000
-3834.755,-3841.192,-3839.225,-3853.173,-3840.298,-3842.623,-3845.573,-3842.176,0.000,1.021,0.085,-0.488,1.923,0.336,66.667,64.000
-3834.576,-3841.013,-3838.778,-3852.279,-3839.583,-3842.354,-3845.484,-3841.729,0.001,1.020,0.086,-0.549,1.831,0.366,66.667,65.000
-3833.950,-3841.013,-3838.331,-3852.189,-3839.225,-3842.444,-3844.858,-3841.907,-0.000,1.020,0.087,-0.549,1.770,0.366,66.667,66.000
-3833.682,-3840.745,-3837.884,-3852.279,-3838.778,-3842.086,-3844.232,-3841.907,0.000,1.019,0.088,-0.610,1.801,0.519,66.667,67.000
-3833.414,-3840.298,-3837.795,-3851.653,-3839.046,-3841.907,-3844.232,-3841.371,0.002,1.020,0.089,-0.641,1.801,0.610,66.667,68.000
-3833.414,-3840.656,-3837.258,-3851.206,-3838.957,-3841.729,-3844.232,-3840.656,0.000,1.019,0.088,-0.671,1.678,0.702,66.667,69.000
-3833.056,-3840.387,-3837.437,-3850.848,-3838.599,-3841.729,-3843.964,-3840.030,0.000,1.019,0.088,-0.610,1.648,0.824,66.667,70.000
-3832.520,-3839.851,-3836.901,-3850.669,-3838.152,-3841.103,-3843.517,-3839.940,0.001,1.019,0.086,-0.702,1.678,0.824,66.667,71.000
-3832.698,-3839.046,-3836.364,-3850.490,-3837.616,-3840.834,-3843.249,-3839.315,0.002,1.018,0.085,-0.763,1.648,0.854,66.667,72.000
-3832.162,-3839.046,-3835.917,-3850.133,-3836.901,-3840.119,-3842.712,-3839.225,0.002,1.020,0.088,-0.763,1.617,0.885,66.667,73.000
-3831.804,-3838.868,-3835.560,-3849.596,-3837.258,-3840.209,-3842.354,-3838.868,0.004,1.022,0.088,-0.824,1.709,0.854,66.667,74.000
-3831.626,-3838.778,-3835.470,-3849.328,-3837.169,-3839.762,-3841.907,-3838.599,0.003,1.021,0.086,-0.793,1.709,0.763,66.667,75.000
-3831.268,-3838.331,-3835.470,-3849.239,-3836.632,-3839.136,-3841.729,-3838.689,0.001,1.021,0.087,-0.824,1.587,0.763,66.667,76.000
-3830.821,-3838.063,-3835.023,-3848.970,-3836.632,-3838.778,-3841.729,-3838.689,0.001,1.019,0.086,-0.793,1.617,0.671,66.667,77.000
-3830.731,-3838.331,-3834.755,-3848.702,-3836.543,-3838.778,-3841.550,-3838.510,0.002,1.019,0.088,-0.732,1.801,0.519,66.667,78.000
-3830.642,-3837.974,-3834.308,-3848.523,-3836.096,-3838.599,-3840.834,-3838.242,0.004,1.018,0.087,-0.702,1.831,0.397,66.667,79.000
-3830.553,-3837.705,-3834.576,-3848.434,-3836.185,-3838.868,-3840.656,-3837.705,0.002,1.017,0.090,-0.610,1.831,0.244,66.667,80.000
-3830.284,-3837.526,-3834.308,-3847.898,-3835.828,-3838.778,-3840.834,-3837.705,0.003,1.018,0.089,-0.580,1.801,0.336,66.667,81.000
-3830.284,-3837.079,-3833.861,-3848.076,-3835.381,-3838.599,-3840.656,-3837.437,0.003,1.019,0.088,-0.488,1.801,0.366,66.667,82.000
-3829.659,-3837.079,-3833.771,-3848.076,-3835.649,-3838.152,-3840.387,-3837.526,0.002,1.018,0.089,-0.458,1.892,0.305,66.667,83.000
-3828.943,-3836.811,-3833.324,-3847.719,-3835.828,-3837.526,-3840.119,-3837.169,0.002,1.019,0.087,-0.458,1.801,0.336,66.667,84.000
-3829.390,-3836.275,-3833.324,-3847.719,-3835.470,-3837.258,-3839.583,-3836.811,0.000,1.018,0.089,-0.336,1.862,0.305,66.667,85.000
-3829.569,-3836.364,-3833.235,-3847.361,-3835.291,-3837.348,-3839.583,-3836.811,0.001,1.021,0.089,-0.366,1.984,0.244,66.667,86.000
-3829.659,-3836.632,-3833.056,-3846.914,-3834.844,-3837.169,-3839.851,-3836.811,0.003,1.022,0.086,-0.397,1.892,0.183,66.667,87.000
-3829.390,-3836.185,-3832.967,-3846.914,-3834.576,-3836.811,-3839.493,-3836.275,0.000,1.022,0.085,-0.458,1.892,0.275,66.667,88.000
-3828.943,-3836.096,-3832.877,-3846.646,-3834.934,-3836.364,-3839.225,-3836.454,0.001,1.021,0.084,-0.488,1.740,0.305,66.667,89.000
-3828.765,-3836.364,-3832.609,-3846.646,-3834.844,-3836.632,-3839.046,-3836.364,0.001,1.022,0.084,-0.580,1.770,0.336,66.667,90.000
-3828.318,-3836.096,-3832.341,-3846.288,-3834.308,-3836.364,-3839.315,-3836.185,0.001,1.021,0.083,-0.580,1.862,0.397,66.667,91.000
-3828.496,-3835.470,-3832.162,-3846.378,-3834.219,-3836.543,-3838.957,-3835.917,0.002,1.019,0.085,-0.610,1.831,0.336,66.667,92.000
-3828.496,-3835.291,-3832.251,-3846.557,-3834.755,-3836.364,-3838.599,-3835.738,0.001,1.020,0.088,-0.671,1.801,0.549,66.667,93.000
-3828.318,-3835.023,-3832.609,-3846.378,-3834.755,-3836.364,-3838.421,-3836.007,0.002,1.021,0.088,-0.610,1.831,0.610,66.667,94.000
-3828.318,-3835.291,-3832.609,-3846.020,-3834.397,-3836.185,-3838.063,-3835.738,0.002,1.021,0.087,-0.702,1.709,0.610,66.667,95.000
-3828.407,-3835.291,-3831.983,-3846.020,-3834.308,-3836.275,-3838.421,-3835.649,0.001,1.021,0.087,-0.732,1.709,0.732,66.667,96.000
-3828.139,-3835.291,-3831.715,-3846.020,-3833.950,-3835.917,-3838.421,-3835.470,0.001,1.021,0.087,-0.793,1.678,0.793,66.667,97.000
-3827.960,-3835.202,-3831.804,-3845.484,-3833.414,-3835.917,-3838.510,-3835.023,0.004,1.024,0.085,-0.793,1.648,0.732,66.667,98.000
-3828.049,-3835.023,-3831.178,-3845.484,-3833.503,-3836.185,-3837.974,-3835.023,0.002,1.020,0.087,-0.824,1.709,0.732,66.667,99.000
-3827.960,-3835.023,-3831.268,-3845.663,-3833.682,-3836.096,-3837.884,-3834.844,0.003,1.019,0.088,-0.824,1.678,0.763,66.667,100.000
-3828.228,-3834.844,-3831.268,-3845.752,-3833.861,-3835.470,-3837.616,-3835.023,0.004,1.019,0.086,-0.732,1.648,0.671,66.667,101.000
-3827.602,-3835.023,-3831.268,-3845.037,-3833.503,-3835.470,-3837.526,-3835.202,0.003,1.019,0.088,-0.702,1.709,0.610,66.667,102.000
-3827.692,-3834.397,-3831.000,-3845.394,-3833.503,-3835.381,-3837.974,-3835.113,0.005,1.019,0.088,-0.641,1.740,0.549,66.667,103.000
-3827.424,-3834.487,-3831.536,-3845.752,-3833.682,-3835.291,-3837.884,-3834.755,0.002,1.020,0.089,-0.702,1.801,0.519,66.667,104.000
-3827.513,-3834.666,-3831.178,-3845.484,-3833.414,-3835.023,-3837.526,-3834.487,0.002,1.020,0.091,-0.732,1.709,0.458,66.667,105.000
-3827.513,-3834.129,-3831.089,-3844.947,-3833.235,-3835.023,-3837.079,-3834.040,0.004,1.018,0.088,-0.610,1.831,0.427,66.667,106.000
-3826.977,-3834.308,-3831.000,-3845.037,-3833.235,-3835.470,-3837.079,-3834.308,0.004,1.019,0.087,-0.610,1.892,0.458,66.667,107.000
-3826.977,-3834.308,-3831.000,-3844.679,-3832.698,-3835.381,-3837.258,-3834.308,0.004,1.019,0.089,-0.549,1.923,0.488,66.667,108.000
-3827.155,-3834.129,-3831.268,-3845.305,-3833.146,-3835.202,-3837.526,-3834.308,0.003,1.020,0.089,-0.580,1.831,0.458,66.667,109.000
-3827.513,-3834.308,-3831.268,-3845.037,-3833.414,-3835.202,-3837.348,-3834.576,0.003,1.021,0.089,-0.488,1.770,0.397,66.667,110.000
-3827.155,-3833.771,-3830.821,-3845.037,-3832.967,-3834.844,-3837.169,-3834.397,0.002,1.020,0.088,-0.458,1.801,0.427,66.667,111.000
-3827.245,-3833.771,-3831.089,-3844.858,-3833.056,-3834.844,-3837.169,-3834.308,0.001,1.022,0.088,-0.458,1.740,0.366,66.667,112.000
-3827.334,-3833.950,-3830.731,-3844.858,-3832.877,-3834.308,-3836.901,-3834.040,0.001,1.020,0.086,-0.458,1.740,0.397,66.667,113.000
-3827.424,-3833.950,-3830.731,-3844.769,-3833.235,-3834.576,-3836.990,-3834.397,0.002,1.022,0.087,-0.397,1.831,0.397,66.667,114.000
-3827.424,-3834.040,-3830.642,-3844.590,-3832.609,-3835.023,-3836.901,-3834.397,0.004,1.020,0.084,-0.427,1.831,0.458,66.667,115.000
-3826.798,-3834.308,-3830.195,-3844.322,-3832.520,-3834.755,-3836.811,-3833.861,0.004,1.021,0.083,-0.458,1.831,0.366,66.667,116.000
-3826.887,-3834.308,-3830.195,-3844.411,-3832.698,-3834.755,-3836.811,-3833.682,0.003,1.019,0.084,-0.519,1.831,0.336,66.667,117.000
-3826.530,-3833.682,-3830.374,-3844.143,-3832.430,-3834.129,-3836.543,-3833.861,0.001,1.020,0.087,-0.641,1.709,0.397,66.667,118.000
-3827.155,-3833.682,-3830.284,-3844.053,-3832.162,-3834.397,-3836.811,-3833.950,0.002,1.021,0.087,-0.641,1.678,0.427,66.667,119.000
-3827.245,-3834.129,-3830.284,-3844.411,-3832.609,-3834.934,-3836.811,-3833.861,0.001,1.020,0.088,-0.732,1.678,0.397,66.667,120.000
-3826.708,-3833.593,-3829.927,-3844.232,-3832.967,-3835.023,-3836.722,-3833.950,0.001,1.020,0.089,-0.763,1.740,0.519,66.667,121.000
-3826.798,-3833.593,-3830.284,-3844.053,-3832.520,-3834.755,-3836.632,-3833.861,0.001,1.021,0.086,-0.702,1.709,0.519,66.667,122.000
-3826.530,-3833.503,-3830.284,-3843.964,-3832.609,-3834.576,-3836.185,-3833.771,0.000,1.020,0.086,-0.732,1.709,0.641,66.667,123.000
-2580.822,-2588.869,-2584.935,-2598.882,-2587.349,-2588.779,-2590.746,-2588.243,0.002,1.019,0.088,-0.793,1.678,0.702,66.667,124.000
2410.502,2399.773,2404.958,2390.385,2401.561,2401.650,2398.432,2401.829,0.001,1.018,0.088,-0.763,1.648,0.732,66.667,125.000
3660.411,3648.967,3654.421,3639.848,3650.845,3651.292,3647.626,3651.739,0.003,1.018,0.086,-0.671,1.770,0.641,66.667,126.000
3660.501,3649.235,3654.332,3639.579,3650.666,3651.292,3647.805,3651.560,0.004,1.019,0.087,-0.671,1.678,0.702,66.667,127.000
3660.679,3649.057,3654.153,3639.848,3650.576,3651.292,3647.984,3651.470,0.001,1.019,0.087,-0.610,1.740,0.763,66.667,128.000
3660.858,3649.235,3654.332,3639.579,3650.487,3651.113,3648.073,3651.649,0.001,1.020,0.088,-0.702,1.740,0.641,66.667,129.000
3660.858,3648.878,3654.600,3640.026,3650.576,3650.845,3647.716,3651.560,0.002,1.021,0.084,-0.671,1.740,0.519,66.667,130.000
3660.679,3648.699,3654.242,3640.026,3650.666,3650.845,3647.984,3651.113,0.002,1.019,0.086,-0.610,1.770,0.458,66.667,131.000
3660.769,3648.878,3653.974,3640.026,3650.576,3651.292,3647.894,3651.470,0.002,1.020,0.085,-0.641,1.709,0.519,66.667,132.000
3660.858,3648.967,3654.153,3639.758,3650.755,3651.649,3648.073,3651.739,0.003,1.021,0.087,-0.641,1.770,0.427,66.667,133.000
3661.037,3649.146,3654.063,3639.669,3650.755,3651.560,3647.716,3651.560,0.001,1.019,0.090,-0.580,1.770,0.397,66.667,134.000
3660.858,3649.057,3654.421,3640.026,3650.576,3651.560,3647.358,3651.649,0.003,1.021,0.086,-0.580,1.740,0.397,66.667,135.000
3660.679,3648.967,3654.868,3640.295,3650.845,3651.470,3647.716,3651.470,0.003,1.021,0.086,-0.641,1.740,0.336,66.667,136.000
3660.590,3648.610,3655.136,3640.026,3651.381,3651.202,3648.252,3651.649,0.000,1.021,0.088,-0.488,1.831,0.519,66.667,137.000
3660.769,3648.967,3654.868,3640.116,3650.845,3651.470,3648.073,3652.007,0.002,1.019,0.086,-0.458,1.831,0.427,66.667,138.000
3660.858,3649.146,3654.779,3640.026,3650.845,3651.292,3648.163,3652.365,0.002,1.019,0.084,-0.458,1.831,0.458,66.667,139.000
3660.858,3649.057,3655.047,3640.473,3650.755,3651.649,3648.341,3652.096,0.002,1.019,0.084,-0.458,1.770,0.549,66.667,140.000
3660.590,3648.431,3654.689,3640.295,3650.576,3651.470,3647.984,3652.096,0.003,1.021,0.086,-0.488,1.740,0.488,66.667,141.000
3661.037,3648.788,3654.868,3640.295,3650.845,3651.649,3648.073,3652.186,0.004,1.020,0.087,-0.488,1.801,0.366,66.667,142.000
3661.037,3648.788,3654.779,3640.742,3650.845,3651.917,3648.341,3652.365,0.002,1.018,0.088,-0.488,1.770,0.397,66.667,143.000
3661.037,3649.235,3654.868,3639.758,3651.202,3652.096,3648.073,3652.096,0.002,1.019,0.088,-0.580,1.831,0.305,66.667,144.000
3661.126,3649.235,3655.047,3640.116,3651.470,3651.739,3648.341,3652.096,0.002,1.019,0.086,-0.702,1.831,0.397,66.667,145.000
3661.037,3649.235,3654.779,3640.116,3651.470,3651.649,3648.163,3651.739,0.001,1.020,0.084,-0.702,1.770,0.427,66.667,146.000
3661.037,3649.235,3654.868,3640.295,3651.202,3651.739,3648.431,3651.828,0.000,1.019,0.083,-0.641,1.678,0.519,66.667,147.000
3660.948,3648.699,3655.315,3640.116,3651.023,3651.649,3648.341,3652.007,0.003,1.019,0.087,-0.702,1.740,0.610,66.667,148.000
3660.948,3649.057,3654.779,3640.473,3651.292,3651.649,3648.341,3651.739,0.002,1.020,0.084,-0.488,1.862,0.580,66.667,149.000
3661.663,3649.235,3654.868,3640.652,3651.649,3651.649,3648.341,3651.828,0.005,1.020,0.088,-0.488,1.740,0.732,66.667,150.000
3661.305,3649.325,3655.047,3640.473,3651.023,3651.917,3648.431,3651.917,0.005,1.020,0.084,-0.610,1.648,0.702,66.667,151.000
3661.037,3649.325,3654.779,3640.473,3651.023,3651.649,3648.341,3651.917,0.004,1.020,0.086,-0.641,1.770,0.702,66.667,152.000
3660.858,3649.504,3655.315,3640.384,3651.292,3651.917,3648.252,3652.365,0.003,1.021,0.088,-0.671,1.740,0.580,66.667,153.000
3660.858,3649.057,3655.315,3640.473,3651.292,3652.007,3648.341,3652.543,0.001,1.020,0.085,-0.671,1.709,0.549,66.667,154.000
3660.679,3648.699,3654.868,3640.116,3651.292,3652.096,3648.163,3651.917,0.004,1.020,0.086,-0.702,1.709,0.458,66.667,155.000
3660.948,3649.325,3654.868,3640.295,3651.470,3651.828,3648.252,3651.917,0.002,1.020,0.087,-0.732,1.678,0.397,66.667,156.000
3661.126,3649.593,3654.779,3640.563,3651.202,3651.649,3648.520,3652.186,0.003,1.020,0.086,-0.824,1.678,0.549,66.667,157.000
3661.037,3649.235,3654.779,3640.116,3651.023,3651.917,3648.610,3651.917,0.002,1.022,0.087,-0.793,1.678,0.519,66.667,158.000
3661.484,3649.414,3655.136,3640.384,3651.292,3652.007,3648.341,3652.186,0.000,1.021,0.086,-0.671,1.770,0.519,66.667,159.000
3661.484,3649.414,3654.868,3640.831,3651.202,3651.917,3648.431,3651.739,0.003,1.020,0.088,-0.671,1.770,0.488,66.667,160.000
3661.126,3649.057,3654.868,3640.563,3651.202,3651.739,3648.431,3651.739,0.003,1.019,0.089,-0.519,1.862,0.580,66.667,161.000
3661.126,3649.146,3654.779,3640.295,3651.202,3651.470,3647.984,3652.365,0.003,1.020,0.086,-0.458,1.770,0.641,66.667,162.000
3661.305,3649.235,3654.510,3640.652,3651.202,3651.739,3648.073,3652.186,0.002,1.020,0.088,-0.458,1.801,0.610,66.667,163.000
3661.573,3649.682,3654.868,3640.742,3651.649,3651.739,3648.431,3652.096,0.003,1.022,0.088,-0.458,1.770,0.610,66.667,164.000
3661.663,3649.504,3654.958,3640.652,3651.381,3651.649,3648.341,3652.186,0.003,1.021,0.088,-0.458,1.678,0.580,66.667,165.000
3661.395,3649.593,3654.600,3640.652,3651.560,3651.739,3648.520,3652.543,0.004,1.020,0.088,-0.458,1.740,0.610,66.667,166.000
3661.305,3649.772,3654.868,3640.295,3651.649,3651.828,3648.610,3651.917,0.003,1.021,0.088,-0.519,1.770,0.458,66.667,167.000
3660.858,3649.682,3654.868,3640.205,3651.470,3651.739,3648.163,3652.096,0.003,1.020,0.089,-0.671,1.709,0.427,66.667,168.000
3660.858,3649.235,3655.047,3640.831,3651.739,3651.649,3648.073,3652.365,0.004,1.020,0.089,-0.732,1.709,0.427,66.667,169.000
3661.126,3649.325,3655.047,3640.742,3651.649,3651.649,3648.341,3652.096,0.003,1.019,0.088,-0.671,1.678,0.427,66.667,170.000
3661.126,3649.593,3654.868,3641.010,3651.292,3652.007,3648.520,3652.096,0.004,1.017,0.088,-0.671,1.740,0.458,66.667,171.000
3661.126,3649.504,3654.779,3640.742,3650.845,3651.917,3648.699,3651.917,0.001,1.019,0.088,-0.580,1.740,0.336,66.667,172.000
3661.484,3649.414,3654.958,3640.652,3650.934,3651.649,3648.610,3651.649,0.002,1.018,0.087,-0.458,1.770,0.397,66.667,173.000
3661.484,3649.146,3655.047,3640.742,3651.292,3651.649,3648.163,3652.096,0.000,1.019,0.087,-0.488,1.770,0.397,66.667,174.000
3661.573,3649.235,3655.047,3640.563,3651.202,3652.096,3648.341,3652.365,0.001,1.019,0.086,-0.458,1.709,0.458,66.667,175.000
3661.573,3649.057,3655.405,3640.652,3651.470,3652.007,3648.341,3652.096,0.001,1.018,0.085,-0.488,1.862,0.488,66.667,176.000
3661.395,3649.325,3655.136,3640.563,3651.470,3652.096,3648.610,3652.454,0.002,1.019,0.087,-0.519,1.831,0.519,66.667,177.000
3661.484,3649.772,3654.868,3640.920,3651.470,3651.917,3648.610,3652.543,0.002,1.019,0.084,-0.488,1.831,0.427,66.667,178.000
3661.126,3649.504,3655.226,3640.831,3651.292,3652.186,3648.431,3652.275,0.004,1.019,0.089,-0.549,1.770,0.458,66.667,179.000
3660.948,3649.414,3655.494,3640.384,3651.381,3652.365,3648.341,3652.096,0.003,1.020,0.089,-0.549,1.709,0.488,66.667,180.000
3660.858,3649.146,3655.136,3640.652,3651.292,3651.917,3648.788,3652.186,0.002,1.020,0.087,-0.702,1.740,0.427,66.667,181.000
3661.037,3649.504,3655.315,3640.920,3651.202,3652.096,3648.520,3652.186,0.002,1.021,0.086,-0.702,1.831,0.427,66.667,182.000
3661.484,3649.593,3655.315,3640.563,3651.649,3651.917,3648.341,3652.543,0.003,1.020,0.089,-0.763,1.709,0.397,66.667,183.000
3661.395,3649.861,3655.226,3640.563,3651.560,3652.096,3648.431,3652.365,0.003,1.020,0.089,-0.732,1.801,0.549,66.667,184.000
3661.216,3649.504,3655.047,3640.920,3651.470,3651.917,3648.610,3652.454,0.004,1.020,0.086,-0.702,1.678,0.580,66.667,185.000
3661.305,3649.325,3655.315,3641.010,3651.202,3652.007,3648.610,3652.543,0.002,1.022,0.086,-0.610,1.770,0.641,66.667,186.000
3661.395,3649.504,3655.226,3640.742,3651.649,3652.007,3648.520,3652.365,0.002,1.020,0.084,-0.580,1.801,0.580,66.667,187.000
2415.687,2404.422,2409.697,2395.481,2406.747,2406.031,2403.260,2407.104,0.003,1.021,0.086,-0.549,1.831,0.702,66.667,188.000
-2575.726,-2583.683,-2579.838,-2593.875,-2582.431,-2584.309,-2586.186,-2583.504,0.003,1.022,0.084,-0.610,1.770,0.641,66.667,189.000
-3826.082,-3832.967,-3828.943,-3842.891,-3832.162,-3833.593,-3835.560,-3832.609,0.002,1.021,0.084,-0.549,1.770,0.549,66.667,190.000
-3825.904,-3832.877,-3829.033,-3843.249,-3831.715,-3833.593,-3835.470,-3832.162,0.003,1.022,0.085,-0.580,1.678,0.549,66.667,191.000
-3825.635,-3832.430,-3828.765,-3843.159,-3831.447,-3833.235,-3835.202,-3832.341,0.004,1.019,0.085,-0.610,1.648,0.549,66.667,192.000
-3825.635,-3832.430,-3829.033,-3843.159,-3831.626,-3833.324,-3835.291,-3831.894,0.005,1.021,0.086,-0.671,1.801,0.580,66.667,193.000
-3825.725,-3832.788,-3828.765,-3842.712,-3831.626,-3833.324,-3835.649,-3832.341,0.004,1.021,0.085,-0.610,1.831,0.549,66.667,194.000
-3825.188,-3833.056,-3828.943,-3842.802,-3831.268,-3833.414,-3835.202,-3832.877,0.003,1.019,0.089,-0.580,1.801,0.458,66.667,195.000
-3825.635,-3833.056,-3828.943,-3843.249,-3831.000,-3833.503,-3835.381,-3832.788,0.002,1.020,0.086,-0.610,1.770,0.427,66.667,196.000
-3825.635,-3832.877,-3829.212,-3843.249,-3831.626,-3833.861,-3835.023,-3832.520,0.002,1.020,0.087,-0.610,1.801,0.458,66.667,197.000
-3825.725,-3832.967,-3829.212,-3843.249,-3832.162,-3833.414,-3834.934,-3832.609,0.002,1.021,0.086,-0.580,1.831,0.397,66.667,198.000
-3825.814,-3832.430,-3829.212,-3843.427,-3831.894,-3833.146,-3835.023,-3832.609,0.003,1.021,0.088,-0.519,1.709,0.275,66.667,199.000
-3825.635,-3832.162,-3829.212,-3843.249,-3831.447,-3833.414,-3835.023,-3832.341,0.001,1.020,0.088,-0.458,1.740,0.366,66.667,200.000
-3825.546,-3832.788,-3828.943,-3843.338,-3831.715,-3833.593,-3835.470,-3832.698,0.000,1.020,0.087,-0.427,1.831,0.458,66.667,201.000
-3825.725,-3832.877,-3829.390,-3843.338,-3831.626,-3833.682,-3835.560,-3832.251,0.002,1.021,0.088,-0.488,1.831,0.458,66.667,202.000
-3825.635,-3832.698,-3829.659,-3843.249,-3831.357,-3833.503,-3835.649,-3832.430,0.001,1.021,0.088,-0.397,1.740,0.397,66.667,203.000
-3825.635,-3832.341,-3829.480,-3842.802,-3831.268,-3833.414,-3835.649,-3832.609,0.002,1.021,0.087,-0.488,1.892,0.366,66.667,204.000
-3825.814,-3832.520,-3828.943,-3842.802,-3831.447,-3833.235,-3835.470,-3832.341,0.002,1.021,0.086,-0.458,1.801,0.366,66.667,205.000
-3825.546,-3832.609,-3828.854,-3843.070,-3831.447,-3833.235,-3835.917,-3832.520,0.001,1.021,0.087,-0.549,1.831,0.397,66.667,206.000
-3825.457,-3832.341,-3828.765,-3842.891,-3831.268,-3833.414,-3835.381,-3832.341,0.001,1.020,0.088,-0.549,1.801,0.458,66.667,207.000
-3825.635,-3832.877,-3829.212,-3843.249,-3831.268,-3833.771,-3835.649,-3832.430,0.002,1.020,0.086,-0.610,1.801,0.519,66.667,208.000
-3825.635,-3832.698,-3829.390,-3843.159,-3831.447,-3833.235,-3835.560,-3832.609,0.002,1.020,0.085,-0.641,1.770,0.519,66.667,209.000
-3825.814,-3832.520,-3829.212,-3842.802,-3831.268,-3832.967,-3835.470,-3832.698,0.001,1.020,0.087,-0.671,1.770,0.519,66.667,210.000
-3825.814,-3832.698,-3829.301,-3842.802,-3831.178,-3833.235,-3835.023,-3832.967,0.003,1.021,0.089,-0.671,1.678,0.610,66.667,211.000
-3825.635,-3833.146,-3828.943,-3842.891,-3831.447,-3833.682,-3834.844,-3832.609,0.002,1.022,0.089,-0.641,1.770,0.702,66.667,212.000
-3825.635,-3832.967,-3828.854,-3842.891,-3831.268,-3833.682,-3835.113,-3832.520,0.002,1.021,0.086,-0.671,1.678,0.641,66.667,213.000
-3825.457,-3833.056,-3828.765,-3843.249,-3831.268,-3833.414,-3835.291,-3832.520,0.002,1.022,0.086,-0.671,1.678,0.702,66.667,214.000
-3825.457,-3832.967,-3828.854,-3843.427,-3831.268,-3833.414,-3835.291,-3832.877,0.003,1.021,0.087,-0.641,1.770,0.671,66.667,215.000
-3825.814,-3832.609,-3828.943,-3843.159,-3831.626,-3833.146,-3835.738,-3833.324,0.002,1.021,0.087,-0.732,1.770,0.793,66.667,216.000
-3825.814,-3832.967,-3828.765,-3843.070,-3831.804,-3833.414,-3835.738,-3832.609,0.002,1.020,0.085,-0.671,1.770,0.702,66.667,217.000
-3826.172,-3832.788,-3829.390,-3842.980,-3831.804,-3833.503,-3835.649,-3832.520,0.001,1.017,0.086,-0.610,1.709,0.641,66.667,218.000
-3826.082,-3832.877,-3829.480,-3843.159,-3831.626,-3833.414,-3835.649,-3832.609,0.003,1.019,0.086,-0.610,1.678,0.641,66.667,219.000
-3825.635,-3832.877,-3829.122,-3843.427,-3831.626,-3833.235,-3835.560,-3832.609,0.002,1.019,0.087,-0.702,1.740,0.641,66.667,220.000
-3825.457,-3833.146,-3829.033,-3842.891,-3831.626,-3833.324,-3835.828,-3832.698,0.003,1.020,0.088,-0.732,1.740,0.427,66.667,221.000
-3825.725,-3833.146,-3828.854,-3843.249,-3831.447,-3833.682,-3835.649,-3832.609,0.004,1.021,0.087,-0.763,1.740,0.458,66.667,222.000
-3825.814,-3832.967,-3828.943,-3843.338,-3831.268,-3833.324,-3835.738,-3832.967,0.002,1.022,0.089,-0.702,1.770,0.366,66.667,223.000
-3825.814,-3832.520,-3829.212,-3842.980,-3831.447,-3833.414,-3835.470,-3833.056,0.004,1.021,0.089,-0.549,1.740,0.366,66.667,224.000
-3825.904,-3832.698,-3829.122,-3843.070,-3831.268,-3833.593,-3835.470,-3832.788,0.001,1.020,0.087,-0.519,1.770,0.427,66.667,225.000
-3825.814,-3832.609,-3828.943,-3843.249,-3831.447,-3832.967,-3835.470,-3832.341,0.002,1.021,0.089,-0.549,1.740,0.549,66.667,226.000
-3825.993,-3832.609,-3829.390,-3843.159,-3831.447,-3833.414,-3835.381,-3832.609,0.002,1.021,0.087,-0.366,1.740,0.519,66.667,227.000
-3825.725,-3832.609,-3829.390,-3843.070,-3831.268,-3833.056,-3835.560,-3832.788,0.003,1.020,0.087,-0.366,1.801,0.458,66.667,228.000
-3825.635,-3832.341,-3829.033,-3842.802,-3831.000,-3833.146,-3835.470,-3832.967,0.003,1.019,0.087,-0.366,1.801,0.366,66.667,229.000
-3825.725,-3832.520,-3828.675,-3842.444,-3831.268,-3833.503,-3834.934,-3832.609,0.003,1.021,0.087,-0.397,1.831,0.397,66.667,230.000
-3825.725,-3832.967,-3828.586,-3842.802,-3831.536,-3833.593,-3835.291,-3832.788,0.002,1.021,0.085,-0.488,1.862,0.305,66.667,231.000
-3825.725,-3832.788,-3829.301,-3843.159,-3831.804,-3833.056,-3835.470,-3832.609,0.002,1.020,0.085,-0.549,1.862,0.275,66.667,232.000
-3825.814,-3833.056,-3829.390,-3843.338,-3831.626,-3833.503,-3835.560,-3832.520,0.001,1.018,0.085,-0.610,1.770,0.336,66.667,233.000
-3825.457,-3833.056,-3829.122,-3842.802,-3831.447,-3833.593,-3835.649,-3832.520,0.003,1.019,0.086,-0.732,1.709,0.427,66.667,234.000
-3825.546,-3833.056,-3829.122,-3842.980,-3831.804,-3833.771,-3835.738,-3832.609,0.002,1.020,0.087,-0.671,1.923,0.488,66.667,235.000
-3826.172,-3832.609,-3829.212,-3843.249,-3831.715,-3833.593,-3835.291,-3832.698,0.000,1.021,0.086,-0.732,1.801,0.488,66.667,236.000
-3826.351,-3832.609,-3829.301,-3843.070,-3831.715,-3833.235,-3835.470,-3832.609,0.001,1.021,0.088,-0.671,1.709,0.549,66.667,237.000
-3825.904,-3832.877,-3829.122,-3843.159,-3831.268,-3833.056,-3835.649,-3832.967,0.001,1.020,0.087,-0.702,1.770,0.580,66.667,238.000
-3825.546,-3832.967,-3828.943,-3843.070,-3831.536,-3833.146,-3835.738,-3832.609,0.003,1.020,0.089,-0.671,1.678,0.610,66.667,239.000
-3825.904,-3832.967,-3829.033,-3843.070,-3831.447,-3833.414,-3835.649,-3832.520,0.003,1.020,0.087,-0.671,1.709,0.763,66.667,240.000
-3825.904,-3832.877,-3829.390,-3842.802,-3831.447,-3833.682,-3835.202,-3832.251,0.001,1.019,0.086,-0.610,1.770,0.732,66.667,241.000
-3825.904,-3832.609,-3829.301,-3842.265,-3831.536,-3833.414,-3835.113,-3832.162,0.004,1.020,0.086,-0.610,1.801,0.732,66.667,242.000
-3825.904,-3832.520,-3828.854,-3842.623,-3831.626,-3833.682,-3835.470,-3832.430,0.003,1.019,0.087,-0.641,1.770,0.671,66.667,243.000
-3825.457,-3832.341,-3828.586,-3842.802,-3831.000,-3833.414,-3835.381,-3831.715,0.001,1.018,0.085,-0.610,1.740,0.580,66.667,244.000
-3825.278,-3832.430,-3828.675,-3842.802,-3831.000,-3833.235,-3835.202,-3831.983,0.003,1.018,0.087,-0.702,1.831,0.519,66.667,245.000
-3825.725,-3832.877,-3828.586,-3842.802,-3831.357,-3833.414,-3834.844,-3832.609,0.002,1.019,0.087,-0.702,1.831,0.458,66.667,246.000
-3825.814,-3832.698,-3828.765,-3843.070,-3831.357,-3833.235,-3835.202,-3832.967,0.003,1.021,0.088,-0.793,1.831,0.519,66.667,247.000
-3825.814,-3832.341,-3828.943,-3843.070,-3831.268,-3833.503,-3835.470,-3832.788,0.002,1.020,0.087,-0.702,1.740,0.488,66.667,248.000
-3825.635,-3832.430,-3828.854,-3843.070,-3831.089,-3833.235,-3835.202,-3832.341,0.003,1.021,0.089,-0.702,1.770,0.458,66.667,249.000
-3825.367,-3832.430,-3828.765,-3842.891,-3831.178,-3832.967,-3835.023,-3832.162,0.002,1.020,0.088,-0.610,1.801,0.427,66.667,250.000
-3825.546,-3832.788,-3828.496,-3843.070,-3831.357,-3832.788,-3835.291,-3832.341,0.003,1.022,0.089,-0.549,1.801,0.488,66.667,251.000
-2579.749,-2587.796,-2583.415,-2597.809,-2586.186,-2587.796,-2590.210,-2586.902,0.003,1.021,0.090,-0.519,1.740,0.519,66.667,252.000
2411.753,2400.399,2406.210,2391.547,2402.544,2402.276,2399.326,2402.813,0.004,1.022,0.088,-0.336,1.831,0.519,66.667,253.000
3661.305,3649.682,3655.315,3641.010,3651.828,3651.917,3648.431,3652.186,0.001,1.020,0.087,-0.366,1.801,0.580,66.667,254.000
3661.037,3649.504,3655.673,3641.189,3651.917,3652.186,3648.610,3652.365,0.003,1.019,0.084,-0.397,1.801,0.427,66.667,255.000
3661.484,3649.593,3655.226,3641.010,3651.649,3652.454,3648.610,3652.007,0.003,1.022,0.086,-0.458,1.770,0.427,66.667,256.000
3661.305,3649.325,3655.226,3640.742,3651.023,3651.917,3648.520,3652.365,0.001,1.021,0.086,-0.458,1.770,0.366,66.667,257.000
3661.395,3649.414,3655.315,3640.920,3651.381,3652.186,3648.610,3652.543,0.001,1.019,0.086,-0.580,1.801,0.488,66.667,258.000
3661.842,3649.325,3655.315,3641.189,3651.470,3652.543,3648.967,3652.365,0.002,1.020,0.087,-0.641,1.801,0.458,66.667,259.000
3661.573,3649.593,3655.762,3640.831,3651.649,3652.007,3648.341,3652.633,0.001,1.021,0.087,-0.702,1.831,0.366,66.667,260.000
3661.573,3649.325,3655.494,3641.010,3651.470,3652.186,3648.163,3652.812,0.001,1.021,0.089,-0.610,1.740,0.488,66.667,261.000
3661.573,3649.235,3655.315,3641.189,3651.470,3652.633,3648.610,3652.365,0.000,1.020,0.086,-0.671,1.770,0.519,66.667,262.000
3661.484,3648.967,3655.673,3640.563,3651.649,3652.454,3649.146,3652.812,0.001,1.021,0.085,-0.702,1.740,0.641,66.667,263.000
3661.573,3649.146,3655.405,3640.473,3651.739,3652.633,3649.146,3653.169,0.002,1.022,0.087,-0.732,1.740,0.610,66.667,264.000
3661.931,3649.682,3655.405,3641.010,3651.917,3651.917,3648.967,3652.543,0.002,1.022,0.087,-0.671,1.740,0.610,66.667,265.000
3661.573,3649.861,3655.047,3640.831,3651.470,3652.007,3648.788,3652.454,0.001,1.020,0.085,-0.702,1.862,0.610,66.667,266.000
3661.573,3649.504,3655.315,3640.473,3651.292,3652.096,3648.967,3652.365,0.001,1.020,0.086,-0.610,1.862,0.763,66.667,267.000
3661.484,3649.772,3655.136,3640.563,3651.649,3652.454,3648.610,3652.365,0.003,1.021,0.087,-0.610,1.709,0.702,66.667,268.000
3661.037,3649.861,3655.315,3640.473,3651.739,3652.186,3648.610,3652.633,0.002,1.018,0.090,-0.732,1.709,0.641,66.667,269.000
3661.126,3650.129,3655.405,3640.742,3651.470,3652.186,3648.788,3652.454,0.001,1.019,0.090,-0.763,1.801,0.671,66.667,270.000
3661.395,3649.951,3655.315,3641.010,3651.470,3652.275,3648.967,3652.543,0.002,1.020,0.086,-0.793,1.740,0.580,66.667,271.000
3661.216,3649.593,3655.494,3641.368,3651.292,3652.096,3648.699,3652.633,0.005,1.021,0.087,-0.793,1.617,0.580,66.667,272.000
3661.305,3649.861,3655.226,3640.652,3651.202,3651.828,3648.520,3652.633,0.004,1.021,0.087,-0.732,1.678,0.580,66.667,273.000
3661.573,3650.129,3655.583,3641.278,3651.560,3652.096,3648.520,3652.722,0.004,1.019,0.083,-0.702,1.678,0.519,66.667,274.000
3661.395,3649.504,3655.136,3641.278,3651.917,3652.096,3648.431,3652.633,0.005,1.020,0.086,-0.610,1.709,0.519,66.667,275.000
3661.752,3649.682,3654.600,3640.831,3651.560,3651.917,3648.788,3652.275,0.004,1.021,0.086,-0.580,1.740,0.305,66.667,276.000
3661.842,3649.951,3654.958,3641.099,3651.381,3652.365,3648.520,3652.365,0.003,1.021,0.085,-0.488,1.801,0.275,66.667,277.000
3661.752,3650.129,3655.315,3641.010,3651.739,3652.007,3648.788,3652.633,0.003,1.019,0.086,-0.427,1.831,0.244,66.667,278.000
3661.484,3649.861,3655.673,3641.010,3651.917,3652.186,3648.610,3652.812,0.001,1.019,0.087,-0.458,1.892,0.366,66.667,279.000
3661.573,3649.504,3655.494,3640.742,3651.739,3652.454,3648.341,3652.990,0.003,1.018,0.086,-0.519,1.801,0.397,66.667,280.000
3661.663,3649.504,3655.315,3640.563,3651.649,3652.186,3648.610,3652.633,0.002,1.021,0.087,-0.488,1.831,0.244,66.667,281.000
3661.573,3649.593,3655.673,3640.384,3651.560,3651.917,3648.610,3652.633,0.001,1.021,0.089,-0.549,1.801,0.305,66.667,282.000
3661.305,3649.504,3655.315,3641.010,3651.739,3652.186,3649.057,3652.543,0.004,1.020,0.090,-0.610,1.740,0.244,66.667,283.000
3660.858,3649.414,3655.315,3640.742,3651.560,3652.365,3648.610,3652.543,0.003,1.019,0.089,-0.671,1.770,0.366,66.667,284.000
3661.484,3649.414,3655.315,3640.742,3651.649,3652.186,3648.610,3652.812,0.003,1.019,0.087,-0.702,1.770,0.488,66.667,285.000
3661.752,3649.682,3655.762,3641.189,3652.096,3652.186,3648.610,3652.543,0.002,1.023,0.087,-0.671,1.862,0.397,66.667,286.000
3661.484,3649.682,3655.673,3641.278,3651.828,3652.365,3649.146,3652.543,0.001,1.021,0.088,-0.549,1.740,0.458,66.667,287.000
3661.484,3649.414,3655.136,3640.920,3651.649,3652.096,3648.967,3652.365,0.000,1.021,0.086,-0.549,1.801,0.641,66.667,288.000
3661.484,3649.772,3655.673,3641.099,3651.649,3652.454,3648.967,3652.365,0.002,1.023,0.088,-0.549,1.709,0.671,66.667,289.000
3661.484,3649.682,3655.852,3641.010,3651.292,3652.186,3649.057,3652.275,0.001,1.020,0.088,-0.519,1.709,0.732,66.667,290.000
3661.752,3649.682,3655.762,3641.368,3651.649,3652.365,3649.235,3652.722,0.001,1.020,0.087,-0.549,1.801,0.732,66.667,291.000
3662.021,3649.861,3655.315,3641.010,3651.649,3652.275,3648.610,3652.543,0.003,1.020,0.087,-0.671,1.770,0.641,66.667,292.000
3661.931,3649.861,3655.226,3641.010,3651.828,3652.186,3648.520,3652.633,0.003,1.020,0.087,-0.763,1.709,0.671,66.667,293.000
3661.931,3649.682,3655.494,3640.831,3651.649,3652.543,3648.967,3652.365,0.004,1.019,0.087,-0.763,1.709,0.610,66.667,294.000
3661.931,3649.951,3655.315,3641.099,3651.560,3652.096,3648.520,3652.275,0.001,1.019,0.089,-0.824,1.709,0.580,66.667,295.000
3661.842,3649.861,3655.673,3640.920,3651.649,3651.917,3648.699,3652.543,0.001,1.018,0.089,-0.824,1.678,0.549,66.667,296.000
3661.573,3649.504,3655.762,3640.742,3651.560,3652.186,3648.788,3652.365,0.003,1.021,0.088,-0.793,1.648,0.458,66.667,297.000
3661.752,3649.682,3655.673,3640.563,3651.649,3652.096,3649.057,3652.186,0.003,1.021,0.089,-0.732,1.709,0.580,66.667,298.000
3661.931,3649.861,3655.762,3641.010,3652.186,3652.454,3649.414,3652.543,0.002,1.021,0.087,-0.671,1.770,0.610,66.667,299.000
3661.931,3649.682,3655.494,3640.920,3652.186,3652.543,3648.967,3652.901,0.002,1.020,0.089,-0.610,1.770,0.610,66.667,300.000
3661.484,3649.504,3655.226,3640.742,3651.649,3652.275,3648.431,3652.543,0.003,1.020,0.090,-0.580,1.831,0.580,66.667,301.000
3661.305,3649.682,3655.047,3640.920,3651.739,3652.186,3648.341,3652.543,0.002,1.019,0.089,-0.549,1.740,0.671,66.667,302.000
3661.395,3649.682,3655.494,3640.652,3651.649,3652.365,3648.610,3652.812,0.002,1.022,0.086,-0.427,1.678,0.458,66.667,303.000
3661.752,3649.325,3655.494,3640.920,3651.739,3652.365,3648.610,3652.543,0.004,1.022,0.089,-0.427,1.770,0.488,66.667,304.000
3661.484,3649.504,3655.405,3641.189,3652.007,3652.633,3648.788,3652.543,0.003,1.020,0.084,-0.397,1.740,0.549,66.667,305.000
3661.484,3649.951,3655.315,3641.189,3651.739,3652.543,3649.057,3652.365,0.002,1.019,0.086,-0.488,1.801,0.458,66.667,306.000
3661.573,3650.308,3655.315,3641.189,3651.560,3652.365,3648.967,3652.812,0.002,1.018,0.082,-0.519,1.801,0.366,66.667,307.000
3661.752,3649.951,3655.136,3640.920,3651.649,3651.739,3648.967,3652.633,0.002,1.019,0.086,-0.549,1.831,0.214,66.667,308.000
3661.573,3649.682,3655.315,3640.831,3651.649,3651.649,3648.788,3652.454,0.001,1.020,0.084,-0.671,1.678,0.214,66.667,309.000
3661.484,3649.682,3655.226,3640.563,3651.828,3652.096,3648.967,3652.365,0.002,1.019,0.085,-0.610,1.740,0.305,66.667,310.000
3661.931,3649.682,3655.047,3640.920,3651.917,3652.186,3649.235,3652.365,0.002,1.019,0.084,-0.641,1.678,0.366,66.667,311.000
3661.931,3649.682,3655.136,3641.010,3651.739,3652.186,3648.967,3652.633,0.002,1.018,0.086,-0.641,1.770,0.458,66.667,312.000
3661.842,3649.951,3655.136,3640.920,3651.739,3652.096,3648.431,3652.633,0.000,1.018,0.089,-0.671,1.709,0.580,66.667,313.000
3661.573,3649.504,3655.315,3640.563,3652.007,3652.007,3648.163,3652.275,0.003,1.021,0.090,-0.641,1.709,0.549,66.667,314.000
3661.663,3649.414,3655.315,3640.473,3651.739,3651.917,3648.431,3652.275,0.004,1.021,0.088,-0.519,1.709,0.671,66.667,315.000
2415.687,2404.243,2410.502,2395.660,2406.568,2406.747,2403.260,2407.194,0.003,1.018,0.086,-0.458,1.770,0.702,66.667,316.000
-2575.726,-2583.415,-2579.302,-2593.697,-2582.252,-2583.504,-2586.186,-2583.057,0.004,1.019,0.084,-0.580,1.801,0.793,66.667,317.000
-3825.814,-3832.520,-3829.033,-3842.891,-3831.357,-3833.682,-3835.649,-3832.341,0.004,1.020,0.083,-0.519,1.770,0.763,66.667,318.000
-3825.725,-3832.967,-3829.390,-3842.891,-3831.357,-3833.861,-3835.381,-3832.251,0.004,1.021,0.085,-0.641,1.740,0.732,66.667,319.000
-3825.457,-3832.788,-3829.212,-3842.802,-3831.000,-3833.593,-3835.291,-3832.341,0.004,1.020,0.082,-0.702,1.770,0.702,66.667,320.000
-3825.635,-3832.788,-3828.943,-3843.249,-3831.447,-3833.414,-3835.649,-3832.609,0.003,1.020,0.084,-0.702,1.801,0.610,66.667,321.000
-3825.546,-3832.520,-3828.943,-3842.891,-3831.268,-3832.877,-3835.470,-3832.520,0.001,1.020,0.086,-0.732,1.801,0.549,66.667,322.000
-3825.725,-3832.520,-3829.301,-3842.891,-3831.626,-3833.056,-3835.649,-3832.341,0.001,1.019,0.088,-0.732,1.801,0.488,66.667,323.000
-3825.904,-3832.698,-3829.033,-3842.891,-3831.536,-3833.056,-3835.470,-3832.341,0.001,1.017,0.086,-0.671,1.862,0.458,66.667,324.000
-3826.082,-3832.698,-3828.943,-3842.891,-3831.715,-3832.967,-3835.470,-3832.430,0.002,1.020,0.085,-0.610,1.801,0.397,66.667,325.000
-3826.261,-3832.877,-3828.943,-3842.712,-3831.268,-3833.324,-3835.291,-3832.520,0.004,1.019,0.090,-0.641,1.740,0.519,66.667,326.000
-3826.082,-3833.056,-3829.122,-3842.623,-3830.821,-3833.414,-3835.202,-3832.520,0.005,1.019,0.086,-0.580,1.678,0.549,66.667,327.000
-3825.814,-3832.788,-3829.122,-3842.802,-3831.447,-3833.235,-3835.291,-3832.609,0.003,1.021,0.086,-0.580,1.678,0.580,66.667,328.000
-3825.635,-3832.520,-3829.122,-3843.070,-3831.983,-3833.235,-3835.649,-3832.520,0.002,1.022,0.089,-0.519,1.678,0.641,66.667,329.000
-3825.457,-3832.520,-3829.390,-3843.249,-3831.536,-3833.324,-3835.649,-3832.520,0.001,1.022,0.088,-0.519,1.678,0.610,66.667,330.000
-3825.367,-3832.877,-3829.480,-3842.891,-3831.000,-3833.414,-3835.291,-3833.324,0.002,1.021,0.088,-0.458,1.678,0.488,66.667,331.000
-3825.457,-3833.056,-3829.390,-3842.891,-3831.447,-3833.146,-3835.023,-3832.967,0.003,1.019,0.087,-0.549,1.740,0.427,66.667,332.000
-3825.725,-3832.609,-3829.390,-3842.891,-3831.626,-3833.056,-3835.202,-3832.251,0.002,1.019,0.089,-0.519,1.801,0.458,66.667,333.000
-3825.904,-3832.609,-3829.212,-3842.623,-3831.536,-3833.235,-3835.470,-3832.251,0.003,1.019,0.089,-0.549,1.801,0.458,66.667,334.000
-3825.725,-3832.967,-3829.033,-3842.444,-3831.268,-3833.235,-3835.381,-3832.341,0.001,1.020,0.086,-0.641,1.740,0.458,66.667,335.000
-3825.635,-3832.967,-3829.212,-3842.533,-3831.089,-3833.414,-3835.381,-3832.698,-0.000,1.020,0.086,-0.580,1.770,0.427,66.667,336.000
-3825.904,-3832.788,-3829.033,-3842.802,-3831.178,-3833.146,-3835.381,-3832.341,0.001,1.020,0.086,-0.702,1.740,0.458,66.667,337.000
-3825.635,-3832.698,-3828.943,-3842.712,-3831.447,-3833.056,-3835.470,-3831.983,0.003,1.019,0.085,-0.610,1.740,0.519,66.667,338.000
-3825.635,-3832.520,-3828.943,-3843.070,-3831.536,-3833.235,-3835.291,-3832.251,0.003,1.020,0.087,-0.549,1.648,0.549,66.667,339.000
-3825.814,-3833.056,-3829.122,-3843.070,-3831.447,-3833.235,-3835.202,-3832.341,0.003,1.022,0.086,-0.610,1.648,0.610,66.667,340.000
-3825.814,-3833.056,-3828.854,-3842.623,-3831.626,-3833.324,-3835.470,-3832.877,0.004,1.022,0.086,-0.702,1.740,0.580,66.667,341.000
-3826.172,-3833.235,-3828.943,-3843.070,-3831.536,-3833.503,-3835.381,-3832.788,0.004,1.020,0.083,-0.610,1.740,0.610,66.667,342.000
-3825.814,-3832.877,-3828.765,-3842.802,-3831.178,-3833.235,-3835.381,-3832.877,0.000,1.022,0.086,-0.610,1.678,0.488,66.667,343.000
-3825.635,-3832.788,-3828.675,-3842.802,-3831.447,-3833.414,-3835.202,-3832.430,0.001,1.021,0.090,-0.641,1.801,0.641,66.667,344.000
-3825.814,-3832.609,-3828.765,-3842.980,-3831.268,-3833.414,-3835.202,-3832.788,0.001,1.020,0.088,-0.732,1.801,0.580,66.667,345.000
-3825.814,-3832.520,-3828.675,-3842.802,-3831.626,-3833.235,-3835.291,-3832.788,-0.001,1.018,0.085,-0.610,1.709,0.549,66.667,346.000
-3825.814,-3832.520,-3828.675,-3842.891,-3831.447,-3833.324,-3835.470,-3832.609,0.001,1.018,0.086,-0.610,1.678,0.610,66.667,347.000
-3825.814,-3832.520,-3829.033,-3842.891,-3831.268,-3833.324,-3835.560,-3832.788,0.002,1.020,0.084,-0.641,1.801,0.610,66.667,348.000
-3825.993,-3832.698,-3828.854,-3842.444,-3831.000,-3833.503,-3835.381,-3832.788,0.001,1.021,0.087,-0.580,1.648,0.580,66.667,349.000
-3826.082,-3832.609,-3828.943,-3842.533,-3831.178,-3833.771,-3835.291,-3832.788,0.002,1.022,0.088,-0.671,1.740,0.641,66.667,350.000
-3825.904,-3833.324,-3828.765,-3843.159,-3831.894,-3833.682,-3835.470,-3832.520,0.004,1.022,0.086,-0.610,1.801,0.580,66.667,351.000
-3825.367,-3833.056,-3828.765,-3842.980,-3831.447,-3833.146,-3835.470,-3832.162,0.004,1.020,0.089,-0.519,1.831,0.519,66.667,352.000
-3825.367,-3832.967,-3829.033,-3842.891,-3831.357,-3833.324,-3835.202,-3832.162,0.003,1.021,0.089,-0.488,1.862,0.366,66.667,353.000
-3825.635,-3832.967,-3829.122,-3843.070,-3831.178,-3833.235,-3835.113,-3832.341,0.005,1.021,0.090,-0.549,1.831,0.458,66.667,354.000
-3825.546,-3832.341,-3829.212,-3842.712,-3831.178,-3833.324,-3835.470,-3832.162,0.003,1.020,0.088,-0.519,1.770,0.397,66.667,355.000
-3825.814,-3832.341,-3829.212,-3842.891,-3831.178,-3833.324,-3835.738,-3832.341,0.003,1.020,0.088,-0.549,1.770,0.366,66.667,356.000
-3826.172,-3832.609,-3828.943,-3842.802,-3831.000,-3833.235,-3835.470,-3832.341,0.002,1.018,0.090,-0.549,1.770,0.458,66.667,357.000
-3825.725,-3832.967,-3828.765,-3842.802,-3831.000,-3833.056,-3835.470,-3832.341,0.003,1.019,0.089,-0.610,1.709,0.366,66.667,358.000
-3825.635,-3833.056,-3828.943,-3843.159,-3831.178,-3833.414,-3835.828,-3832.698,0.002,1.019,0.090,-0.610,1.709,0.397,66.667,359.000
-3825.188,-3832.967,-3828.765,-3843.249,-3831.178,-3833.414,-3835.291,-3833.056,0.001,1.019,0.085,-0.641,1.709,0.427,66.667,360.000
-3825.367,-3832.877,-3828.943,-3843.070,-3831.178,-3833.503,-3835.291,-3832.788,0.003,1.016,0.087,-0.702,1.740,0.427,66.667,361.000
-3825.635,-3832.788,-3828.943,-3843.070,-3831.626,-3833.056,-3835.023,-3832.430,0.002,1.020,0.088,-0.580,1.709,0.488,66.667,362.000
-3825.188,-3832.430,-3828.943,-3843.159,-3831.178,-3833.146,-3835.023,-3832.073,0.001,1.020,0.089,-0.549,1.770,0.488,66.667,363.000
-3825.278,-3832.609,-3828.765,-3842.980,-3831.089,-3832.967,-3835.560,-3832.251,0.001,1.021,0.088,-0.488,1.801,0.549,66.667,364.000
-3825.188,-3832.877,-3829.033,-3842.533,-3831.268,-3832.967,-3835.202,-3832.341,0.003,1.024,0.086,-0.549,1.801,0.549,66.667,365.000
-3825.546,-3832.430,-3829.301,-3843.070,-3831.089,-3833.414,-3835.381,-3832.520,0.003,1.023,0.084,-0.580,1.770,0.610,66.667,366.000
-3825.635,-3832.877,-3829.301,-3842.802,-3831.268,-3833.503,-3835.202,-3832.073,0.003,1.021,0.087,-0.549,1.770,0.549,66.667,367.000
-3825.814,-3832.788,-3828.943,-3842.533,-3831.268,-3833.235,-3835.291,-3832.698,0.004,1.021,0.088,-0.671,1.648,0.610,66.667,368.000
-3825.457,-3832.520,-3828.854,-3842.802,-3831.000,-3833.056,-3835.381,-3832.877,0.002,1.020,0.088,-0.732,1.678,0.580,66.667,369.000
-3825.457,-3831.983,-3828.765,-3842.891,-3831.178,-3833.414,-3835.381,-3832.520,0.000,1.019,0.089,-0.763,1.587,0.549,66.667,370.000
-3825.457,-3832.341,-3829.033,-3842.980,-3831.626,-3833.056,-3835.202,-3832.162,0.002,1.018,0.090,-0.732,1.617,0.519,66.667,371.000
-3825.635,-3832.877,-3828.943,-3842.802,-3831.447,-3833.235,-3835.291,-3832.341,0.002,1.020,0.088,-0.732,1.617,0.488,66.667,372.000
-3825.814,-3832.877,-3828.854,-3843.249,-3831.626,-3833.414,-3835.560,-3832.698,0.002,1.020,0.087,-0.732,1.770,0.519,66.667,373.000
-3825.725,-3832.967,-3828.854,-3843.070,-3831.357,-3833.324,-3835.202,-3832.341,0.004,1.019,0.089,-0.702,1.648,0.610,66.667,374.000
-3825.725,-3832.788,-3829.122,-3842.980,-3831.178,-3833.503,-3835.291,-3832.073,0.002,1.021,0.092,-0.580,1.617,0.580,66.667,375.000
-3825.814,-3832.609,-3828.765,-3842.533,-3831.447,-3833.414,-3835.023,-3832.162,0.003,1.019,0.087,-0.488,1.740,0.610,66.667,376.000
-3825.814,-3832.520,-3828.675,-3842.891,-3831.178,-3833.414,-3835.291,-3832.698,0.002,1.020,0.088,-0.458,1.740,0.702,66.667,377.000
-3825.904,-3832.788,-3829.033,-3843.338,-3831.178,-3833.503,-3835.291,-3832.609,0.002,1.021,0.085,-0.397,1.740,0.580,66.667,378.000
-3825.814,-3832.788,-3829.122,-3842.891,-3831.178,-3833.503,-3835.470,-3832.341,0.003,1.021,0.086,-0.336,1.831,0.610,66.667,379.000
-2579.660,-2587.438,-2583.504,-2597.362,-2586.276,-2587.528,-2589.763,-2587.080,0.002,1.021,0.083,-0.458,1.862,0.519,66.667,380.000
2411.753,2400.577,2406.031,2391.726,2402.187,2402.634,2399.952,2402.991,0.002,1.019,0.083,-0.488,1.770,0.427,66.667,381.000
3661.752,3649.861,3655.852,3640.652,3651.739,3652.186,3648.967,3652.275,0.002,1.017,0.086,-0.519,1.862,0.305,66.667,382.000
3661.484,3649.593,3655.494,3640.920,3651.649,3652.007,3648.788,3652.186,0.001,1.019,0.087,-0.641,1.740,0.275,66.667,383.000
3661.484,3649.772,3655.226,3640.920,3651.560,3652.096,3648.967,3652.275,0.001,1.020,0.089,-0.763,1.648,0.275,66.667,384.000
3661.931,3649.861,3655.315,3641.278,3651.917,3652.186,3649.146,3652.365,-0.000,1.020,0.090,-0.763,1.770,0.305,66.667,385.000
3661.573,3649.861,3655.047,3641.010,3651.649,3652.096,3649.146,3652.812,0.000,1.020,0.089,-0.824,1.678,0.366,66.667,386.000
3661.573,3649.951,3655.405,3640.742,3651.470,3652.096,3648.878,3652.633,0.000,1.021,0.089,-0.793,1.801,0.488,66.667,387.000
3661.931,3649.772,3655.583,3640.742,3651.739,3652.454,3648.788,3652.722,0.001,1.022,0.090,-0.763,1.709,0.580,66.667,388.000
3661.573,3649.861,3655.494,3641.099,3651.828,3652.633,3648.699,3652.722,0.001,1.022,0.089,-0.702,1.801,0.732,66.667,389.000
3661.663,3649.951,3655.583,3641.189,3651.649,3652.365,3648.431,3652.096,0.003,1.021,0.088,-0.580,1.617,0.702,66.667,390.000
3661.842,3649.951,3655.405,3640.920,3651.917,3652.365,3648.610,3652.007,0.004,1.022,0.087,-0.519,1.587,0.702,66.667,391.000
3661.931,3649.951,3655.673,3640.563,3651.917,3652.275,3648.699,3652.812,0.004,1.022,0.085,-0.458,1.709,0.702,66.667,392.000
3661.752,3649.951,3655.315,3640.652,3651.560,3651.917,3648.699,3652.812,0.004,1.021,0.086,-0.458,1.587,0.641,66.667,393.000
3661.484,3649.593,3655.494,3640.652,3651.649,3651.739,3648.788,3652.454,0.003,1.020,0.084,-0.519,1.648,0.580,66.667,394.000
3661.663,3650.040,3655.762,3640.473,3651.649,3652.007,3648.878,3652.365,0.004,1.021,0.085,-0.610,1.709,0.580,66.667,395.000
3661.842,3650.129,3655.673,3640.742,3651.649,3652.365,3649.414,3652.633,0.004,1.022,0.084,-0.610,1.770,0.580,66.667,396.000
3661.842,3649.951,3655.494,3640.831,3651.292,3652.365,3649.235,3652.543,0.003,1.020,0.086,-0.671,1.831,0.458,66.667,397.000
3661.484,3649.593,3655.494,3640.742,3651.470,3651.917,3648.967,3652.543,0.002,1.020,0.086,-0.671,1.709,0.336,66.667,398.000
3661.752,3649.772,3655.226,3640.563,3651.470,3652.275,3648.878,3652.633,0.002,1.021,0.088,-0.854,1.740,0.305,66.667,399.000
3661.663,3649.861,3654.868,3640.563,3651.470,3652.365,3648.788,3652.543,0.002,1.019,0.085,-0.702,1.770,0.366,66.667,400.000
3661.573,3649.682,3655.136,3640.920,3651.917,3652.096,3648.878,3652.365,0.004,1.018,0.088,-0.732,1.770,0.366,66.667,401.000
3661.663,3649.772,3655.315,3640.742,3651.649,3651.828,3648.520,3652.275,0.001,1.020,0.088,-0.610,1.709,0.488,66.667,402.000
3661.216,3649.861,3655.673,3640.920,3651.470,3652.275,3648.610,3652.365,0.003,1.020,0.088,-0.458,1.770,0.427,66.667,403.000
3661.395,3649.861,3655.673,3640.742,3651.470,3652.365,3648.699,3652.007,0.003,1.018,0.090,-0.427,1.801,0.519,66.667,404.000
3661.484,3649.504,3655.583,3641.189,3651.381,3652.096,3648.610,3652.365,0.001,1.021,0.086,-0.336,1.831,0.488,66.667,405.000
3661.305,3649.414,3655.136,3641.010,3651.917,3652.096,3648.699,3652.722,0.001,1.020,0.088,-0.305,1.831,0.549,66.667,406.000
3661.573,3649.235,3655.226,3640.742,3651.381,3652.365,3649.057,3653.080,0.005,1.020,0.087,-0.336,1.770,0.610,66.667,407.000
3662.021,3649.325,3655.673,3640.920,3651.739,3652.365,3648.788,3652.365,0.002,1.021,0.087,-0.458,1.831,0.580,66.667,408.000
3661.573,3649.682,3655.405,3641.189,3651.739,3652.454,3648.788,3652.633,0.002,1.021,0.085,-0.549,1.801,0.580,66.667,409.000
3661.216,3649.682,3655.405,3641.189,3651.649,3652.543,3649.057,3652.722,0.002,1.021,0.088,-0.610,1.709,0.458,66.667,410.000
3661.126,3649.951,3655.494,3641.010,3651.381,3652.096,3648.967,3652.633,-0.000,1.020,0.084,-0.763,1.709,0.519,66.667,411.000
3661.305,3649.504,3655.494,3641.010,3651.381,3651.828,3648.520,3652.543,0.001,1.021,0.088,-0.763,1.740,0.488,66.667,412.000
3661.573,3649.682,3655.673,3641.010,3651.649,3652.186,3648.610,3652.633,0.002,1.020,0.087,-0.824,1.740,0.458,66.667,413.000
3661.573,3649.682,3655.226,3640.742,3651.470,3652.186,3648.788,3652.633,0.002,1.021,0.087,-0.702,1.770,0.458,66.667,414.000
3661.484,3649.951,3655.494,3640.742,3651.470,3652.096,3648.788,3652.365,0.003,1.021,0.089,-0.671,1.801,0.488,66.667,415.000
3662.021,3649.951,3655.494,3641.099,3651.470,3652.186,3648.699,3652.633,0.002,1.020,0.089,-0.702,1.617,0.519,66.667,416.000
3661.573,3649.861,3655.762,3640.920,3651.470,3652.365,3648.878,3653.080,0.002,1.021,0.090,-0.580,1.617,0.488,66.667,417.000
3661.484,3649.772,3655.762,3640.920,3651.917,3652.365,3648.967,3652.365,0.001,1.020,0.087,-0.549,1.740,0.641,66.667,418.000
3661.484,3649.504,3655.315,3641.010,3651.649,3652.365,3648.610,3652.365,0.000,1.018,0.089,-0.610,1.831,0.610,66.667,419.000
3661.663,3649.682,3655.405,3640.920,3651.470,3652.275,3648.431,3652.543,0.003,1.019,0.088,-0.519,1.770,0.610,66.667,420.000
3661.484,3649.235,3655.494,3640.920,3651.739,3652.543,3648.610,3652.633,0.005,1.019,0.086,-0.580,1.801,0.580,66.667,421.000
3661.395,3649.325,3655.226,3640.652,3651.739,3652.365,3648.788,3652.633,0.004,1.019,0.086,-0.580,1.801,0.610,66.667,422.000
3661.573,3649.414,3655.226,3641.010,3651.649,3652.543,3648.431,3652.365,0.005,1.020,0.088,-0.641,1.831,0.488,66.667,423.000
3661.573,3649.504,3655.494,3641.189,3651.828,3652.633,3648.967,3652.454,0.004,1.021,0.087,-0.641,1.740,0.336,66.667,424.000
3661.931,3650.398,3655.315,3641.368,3652.096,3652.365,3648.610,3652.633,0.003,1.021,0.087,-0.458,1.740,0.336,66.667,425.000
3661.752,3650.040,3655.494,3641.189,3651.828,3651.917,3648.699,3652.543,0.002,1.023,0.087,-0.549,1.770,0.366,66.667,426.000
3661.752,3649.772,3655.583,3641.010,3651.739,3652.365,3648.610,3652.901,0.000,1.022,0.084,-0.610,1.740,0.336,66.667,427.000
3662.021,3649.951,3655.583,3640.742,3651.649,3652.543,3648.610,3652.633,0.002,1.021,0.085,-0.580,1.740,0.305,66.667,428.000
3661.842,3649.504,3655.941,3640.920,3651.470,3652.365,3649.235,3652.633,-0.000,1.020,0.090,-0.641,1.770,0.366,66.667,429.000
3661.663,3649.235,3655.941,3640.742,3651.560,3652.365,3648.878,3652.543,0.002,1.018,0.089,-0.580,1.740,0.366,66.667,430.000
3661.305,3649.414,3655.673,3640.473,3651.649,3652.543,3648.610,3652.454,0.001,1.021,0.089,-0.610,1.709,0.305,66.667,431.000
3661.752,3649.861,3655.226,3640.563,3651.917,3652.186,3648.610,3652.454,0.001,1.021,0.089,-0.580,1.831,0.458,66.667,432.000
3661.752,3649.504,3655.315,3641.010,3651.917,3652.096,3648.788,3652.722,0.001,1.022,0.087,-0.641,1.740,0.519,66.667,433.000
3661.484,3649.772,3655.405,3641.278,3651.649,3652.365,3648.878,3652.543,0.001,1.021,0.086,-0.763,1.770,0.641,66.667,434.000
3661.305,3649.682,3655.673,3641.010,3651.470,3652.186,3648.788,3652.543,0.002,1.019,0.089,-0.793,1.740,0.549,66.667,435.000
3661.484,3649.593,3655.673,3641.010,3651.292,3652.186,3648.431,3652.543,0.002,1.021,0.090,-0.671,1.740,0.580,66.667,436.000
3661.752,3649.772,3655.673,3641.010,3651.649,3651.917,3649.057,3652.722,0.002,1.021,0.089,-0.580,1.770,0.702,66.667,437.000
3662.110,3649.593,3655.762,3641.010,3651.828,3652.007,3648.788,3652.722,0.002,1.021,0.088,-0.458,1.709,0.702,66.667,438.000
3661.573,3649.325,3655.226,3640.652,3651.739,3652.365,3648.520,3652.365,0.004,1.020,0.086,-0.549,1.648,0.610,66.667,439.000
3661.663,3649.325,3655.494,3640.652,3651.828,3652.633,3648.788,3652.722,0.005,1.022,0.085,-0.488,1.770,0.549,66.667,440.000
3661.752,3649.504,3655.494,3640.920,3651.917,3652.186,3648.788,3652.901,0.004,1.020,0.086,-0.427,1.770,0.549,66.667,441.000
3661.842,3649.504,3655.494,3640.742,3651.739,3652.365,3648.788,3652.722,0.003,1.021,0.085,-0.519,1.801,0.488,66.667,442.000
3661.573,3649.772,3655.226,3640.652,3651.560,3652.365,3649.235,3652.990,0.004,1.022,0.086,-0.671,1.801,0.488,66.667,443.000
2415.956,2404.422,2409.876,2395.302,2406.031,2406.568,2403.885,2407.194,0.004,1.021,0.084,-0.732,1.801,0.397,66.667,444.000
-2575.458,-2583.594,-2579.749,-2594.054,-2582.521,-2583.594,-2585.471,-2582.789,0.001,1.021,0.086,-0.793,1.770,0.366,66.667,445.000
-3825.814,-3832.609,-3829.033,-3843.338,-3831.894,-3833.503,-3835.291,-3832.251,0.001,1.021,0.087,-0.763,1.770,0.336,66.667,446.000
-3825.814,-3832.520,-3828.407,-3842.980,-3831.715,-3833.235,-3835.023,-3832.162,0.001,1.018,0.087,-0.732,1.770,0.336,66.667,447.000
-3825.635,-3832.967,-3828.854,-3842.533,-3831.715,-3832.967,-3835.291,-3832.251,0.001,1.019,0.091,-0.671,1.801,0.366,66.667,448.000
-3825.814,-3832.609,-3829.033,-3842.980,-3831.626,-3833.235,-3835.023,-3832.073,0.002,1.018,0.088,-0.549,1.740,0.427,66.667,449.000
-3825.635,-3832.341,-3828.496,-3843.070,-3831.626,-3833.056,-3835.023,-3832.430,0.001,1.020,0.088,-0.519,1.801,0.519,66.667,450.000
-3825.814,-3832.698,-3828.765,-3842.980,-3831.268,-3833.324,-3835.291,-3832.341,0.001,1.020,0.089,-0.336,1.831,0.488,66.667,451.000
-3825.814,-3832.877,-3828.765,-3842.802,-3831.000,-3833.414,-3835.470,-3832.162,0.002,1.022,0.088,-0.336,1.770,0.580,66.667,452.000
-3825.725,-3833.056,-3828.854,-3842.623,-3831.536,-3833.324,-3835.738,-3832.341,0.001,1.022,0.084,-0.366,1.740,0.519,66.667,453.000
-3825.457,-3833.146,-3829.301,-3842.623,-3831.447,-3833.235,-3835.649,-3832.341,0.001,1.022,0.085,-0.427,1.770,0.549,66.667,454.000
-3825.635,-3832.788,-3829.480,-3842.712,-3831.178,-3833.503,-3835.738,-3832.341,0.002,1.021,0.082,-0.488,1.801,0.488,66.667,455.000
-3825.814,-3832.520,-3829.480,-3843.070,-3831.357,-3833.324,-3835.381,-3832.341,0.003,1.023,0.083,-0.671,1.770,0.458,66.667,456.000
-3825.904,-3832.609,-3828.943,-3843.159,-3831.447,-3832.967,-3835.113,-3832.430,0.003,1.021,0.085,-0.641,1.740,0.519,66.667,457.000
-3825.814,-3832.609,-3829.122,-3842.712,-3831.178,-3833.056,-3835.381,-3832.162,0.003,1.022,0.087,-0.824,1.709,0.488,66.667,458.000
-3825.993,-3832.698,-3829.122,-3842.623,-3831.268,-3833.324,-3835.023,-3832.520,0.001,1.020,0.090,-0.854,1.709,0.427,66.667,459.000
-3825.635,-3832.698,-3828.765,-3842.623,-3831.178,-3833.682,-3835.023,-3832.073,0.001,1.019,0.093,-0.854,1.709,0.549,66.667,460.000
-3825.367,-3832.162,-3828.496,-3842.802,-3831.357,-3833.146,-3834.755,-3832.341,0.003,1.019,0.091,-0.824,1.709,0.519,66.667,461.000
-3825.635,-3832.609,-3828.943,-3843.070,-3831.268,-3833.056,-3835.023,-3832.520,0.002,1.021,0.093,-0.824,1.678,0.610,66.667,462.000
-3825.814,-3832.609,-3829.033,-3842.802,-3831.000,-3832.967,-3834.934,-3832.341,0.003,1.020,0.092,-0.702,1.678,0.702,66.667,463.000
-3825.635,-3832.609,-3829.301,-3842.802,-3830.642,-3832.967,-3835.381,-3832.341,0.001,1.021,0.088,-0.580,1.740,0.732,66.667,464.000
-3825.635,-3832.251,-3829.390,-3843.070,-3831.178,-3833.146,-3835.202,-3832.788,0.002,1.021,0.092,-0.458,1.678,0.793,66.667,465.000
-3825.635,-3832.341,-3829.212,-3843.159,-3831.447,-3833.593,-3835.113,-3832.877,0.003,1.023,0.090,-0.397,1.740,0.824,66.667,466.000
-3825.635,-3832.341,-3828.943,-3843.070,-3831.268,-3833.414,-3835.470,-3832.698,0.005,1.022,0.088,-0.397,1.770,0.610,66.667,467.000
-3825.814,-3832.698,-3828.854,-3842.891,-3831.626,-3833.414,-3835.649,-3832.609,0.005,1.021,0.087,-0.366,1.709,0.519,66.667,468.000
-3825.546,-3832.520,-3829.122,-3842.712,-3831.626,-3833.235,-3835.381,-3832.520,0.006,1.021,0.088,-0.488,1.831,0.427,66.667,469.000
-3825.635,-3832.251,-3829.480,-3842.623,-3831.715,-3833.056,-3835.649,-3832.698,0.004,1.019,0.087,-0.519,1.862,0.397,66.667,470.000
-3825.457,-3832.788,-3828.854,-3842.444,-3831.268,-3833.235,-3835.291,-3832.520,0.004,1.019,0.089,-0.519,1.831,0.305,66.667,471.000
-3825.188,-3832.877,-3828.496,-3842.623,-3831.357,-3833.324,-3835.649,-3832.967,0.002,1.020,0.086,-0.549,1.862,0.275,66.667,472.000
-3825.188,-3832.788,-3828.765,-3843.070,-3831.447,-3833.414,-3835.470,-3832.788,0.002,1.019,0.087,-0.610,1.770,0.214,66.667,473.000
-3825.457,-3832.788,-3829.033,-3843.249,-3831.715,-3833.324,-3835.560,-3832.788,0.001,1.021,0.085,-0.641,1.770,0.153,66.667,474.000
-3825.635,-3832.788,-3828.854,-3842.802,-3831.536,-3833.056,-3835.738,-3832.430,0.000,1.020,0.087,-0.641,1.831,0.183,66.667,475.000
-3825.546,-3832.967,-3828.765,-3843.070,-3831.447,-3833.235,-3835.649,-3832.162,-0.000,1.020,0.086,-0.580,1.770,0.275,66.667,476.000
-3825.457,-3832.877,-3829.212,-3843.249,-3831.178,-3833.682,-3835.470,-3832.251,-0.001,1.020,0.087,-0.641,1.770,0.488,66.667,477.000
-3825.457,-3832.609,-3828.943,-3843.070,-3831.447,-3833.503,-3835.738,-3832.341,0.000,1.021,0.087,-0.580,1.770,0.610,66.667,478.000
-3825.457,-3832.609,-3828.765,-3842.802,-3831.626,-3833.324,-3835.381,-3832.341,0.000,1.021,0.085,-0.580,1.740,0.671,66.667,479.000
-3825.635,-3832.430,-3828.765,-3842.712,-3831.626,-3833.056,-3835.023,-3832.341,0.002,1.021,0.087,-0.549,1.678,0.793,66.667,480.000
-3825.904,-3832.788,-3828.675,-3842.802,-3831.626,-3833.056,-3835.202,-3832.520,0.003,1.020,0.084,-0.580,1.770,0.824,66.667,481.000
-3825.725,-3832.788,-3828.943,-3842.891,-3831.447,-3832.967,-3835.381,-3832.788,0.002,1.022,0.083,-0.519,1.678,0.824,66.667,482.000
-3825.188,-3833.056,-3828.765,-3842.712,-3831.357,-3832.788,-3835.023,-3832.341,0.004,1.020,0.086,-0.641,1.709,0.702,66.667,483.000
-3825.457,-3833.235,-3828.854,-3842.891,-3831.000,-3833.324,-3835.202,-3832.251,0.004,1.019,0.086,-0.763,1.770,0.671,66.667,484.000
-3825.546,-3833.235,-3829.212,-3842.891,-3831.268,-3833.682,-3834.755,-3832.520,0.007,1.019,0.088,-0.793,1.709,0.580,66.667,485.000
-3825.457,-3833.235,-3828.765,-3843.070,-3831.268,-3833.235,-3835.202,-3832.520,0.004,1.019,0.087,-0.763,1.648,0.580,66.667,486.000
-3825.457,-3832.788,-3828.586,-3842.802,-3831.178,-3833.056,-3835.113,-3832.520,0.004,1.019,0.087,-0.793,1.709,0.549,66.667,487.000
-3825.367,-3832.609,-3828.496,-3842.980,-3831.178,-3833.056,-3835.023,-3832.609,0.004,1.019,0.089,-0.702,1.770,0.488,66.667,488.000
-3825.457,-3832.162,-3828.943,-3842.623,-3831.268,-3833.146,-3834.934,-3832.520,0.003,1.020,0.091,-0.763,1.740,0.427,66.667,489.000
-3825.278,-3832.073,-3829.212,-3842.980,-3831.357,-3833.324,-3835.023,-3832.341,0.002,1.021,0.091,-0.641,1.770,0.549,66.667,490.000
-3825.546,-3833.056,-3829.033,-3842.891,-3831.447,-3833.414,-3835.113,-3832.520,0.003,1.019,0.088,-0.580,1.709,0.519,66.667,491.000
-3825.904,-3832.788,-3829.033,-3842.891,-3831.357,-3833.503,-3835.202,-3832.698,0.002,1.018,0.087,-0.427,1.770,0.580,66.667,492.000
-3825.635,-3832.877,-3829.122,-3843.070,-3831.268,-3833.324,-3835.023,-3832.609,0.003,1.018,0.086,-0.427,1.831,0.488,66.667,493.000
-3825.546,-3832.967,-3829.301,-3842.802,-3831.357,-3833.414,-3835.023,-3832.162,0.003,1.020,0.087,-0.305,1.831,0.488,66.667,494.000
-3825.814,-3832.788,-3829.301,-3842.802,-3831.447,-3833.503,-3835.470,-3832.520,0.003,1.020,0.086,-0.397,1.892,0.427,66.667,495.000
-3825.814,-3832.341,-3829.212,-3842.802,-3831.268,-3833.414,-3835.470,-3832.788,0.003,1.020,0.084,-0.336,1.892,0.427,66.667,496.000
-3825.725,-3832.251,-3829.033,-3842.891,-3831.268,-3832.967,-3835.291,-3832.609,0.001,1.019,0.085,-0.427,1.862,0.366,66.667,497.000
-3825.635,-3832.341,-3828.765,-3842.891,-3831.268,-3832.967,-3835.023,-3832.788,0.003,1.020,0.087,-0.549,1.862,0.305,66.667,498.000
-3825.367,-3832.609,-3828.943,-3842.891,-3831.089,-3833.235,-3835.291,-3832.609,0.002,1.019,0.086,-0.549,1.831,0.305,66.667,499.000
-3825.725,-3832.341,-3828.854,-3842.802,-3831.268,-3833.235,-3835.023,-3832.341,0.003,1.020,0.089,-0.641,1.862,0.305,66.667,500.000
-3825.635,-3832.967,-3828.765,-3843.159,-3831.715,-3833.682,-3835.202,-3832.609,0.001,1.021,0.089,-0.671,1.801,0.366,66.667,501.000
-3825.457,-3832.877,-3828.765,-3843.159,-3831.983,-3833.056,-3835.202,-3832.609,0.002,1.021,0.088,-0.671,1.709,0.397,66.667,502.000
-3825.188,-3832.520,-3828.765,-3843.070,-3831.983,-3832.967,-3835.202,-3832.430,0.002,1.022,0.088,-0.641,1.831,0.397,66.667,503.000
-3825.278,-3832.609,-3828.765,-3843.070,-3831.894,-3833.235,-3835.649,-3832.609,0.000,1.020,0.089,-0.610,1.801,0.427,66.667,504.000
-3825.367,-3832.609,-3828.943,-3842.444,-3831.715,-3833.414,-3835.470,-3832.430,0.000,1.021,0.091,-0.519,1.831,0.580,66.667,505.000
-3825.635,-3832.698,-3828.586,-3842.623,-3831.447,-3833.235,-3835.560,-3832.162,0.002,1.019,0.088,-0.427,1.801,0.641,66.667,506.000
-3825.725,-3832.788,-3829.212,-3842.891,-3831.626,-3833.146,-3835.202,-3832.341,0.001,1.019,0.087,-0.488,1.770,0.641,66.667,507.000
-2579.570,-2587.617,-2583.951,-2597.183,-2586.186,-2587.528,-2589.673,-2587.170,0.002,1.020,0.088,-0.549,1.831,0.732,66.667,508.000
2411.664,2400.756,2405.584,2391.726,2402.455,2402.902,2399.326,2402.813,0.003,1.019,0.088,-0.671,1.801,0.793,66.667,509.000
3661.752,3649.861,3655.315,3640.920,3651.560,3652.096,3648.788,3652.633,0.003,1.018,0.085,-0.702,1.678,0.671,66.667,510.000
3661.573,3649.682,3655.405,3641.010,3651.202,3651.828,3648.699,3652.454,0.003,1.018,0.086,-0.793,1.770,0.702,66.667,511.000
3661.573,3649.861,3655.315,3641.010,3651.739,3651.917,3648.341,3652.275,0.003,1.019,0.089,-0.854,1.831,0.763,66.667,512.000
3661.842,3649.682,3655.405,3640.920,3651.739,3652.096,3649.057,3652.633,0.004,1.019,0.086,-0.854,1.801,0.824,66.667,513.000
3661.752,3649.772,3655.583,3640.920,3651.649,3651.917,3649.504,3652.186,0.002,1.019,0.087,-0.793,1.831,0.671,66.667,514.000
3661.484,3649.951,3655.583,3641.010,3651.828,3652.275,3649.325,3652.543,0.003,1.019,0.086,-0.824,1.740,0.610,66.667,515.000
3661.573,3650.129,3655.673,3641.278,3652.007,3652.365,3648.967,3652.275,0.004,1.022,0.089,-0.671,1.740,0.549,66.667,516.000
3661.484,3649.951,3655.226,3640.831,3651.828,3652.186,3649.504,3652.633,0.003,1.021,0.088,-0.580,1.709,0.427,66.667,517.000
3661.663,3649.861,3655.226,3640.920,3651.739,3652.543,3648.967,3652.543,0.004,1.020,0.089,-0.458,1.740,0.427,66.667,518.000
3661.573,3649.593,3655.315,3641.010,3651.649,3652.186,3648.788,3652.186,0.003,1.020,0.089,-0.488,1.770,0.366,66.667,519.000
3661.395,3649.414,3655.315,3641.010,3651.739,3652.096,3648.967,3652.633,0.002,1.018,0.087,-0.427,1.801,0.366,66.667,520.000
3661.305,3649.861,3655.047,3641.189,3651.917,3652.186,3648.788,3652.812,0.002,1.019,0.088,-0.397,1.892,0.366,66.667,521.000
3661.752,3649.951,3655.673,3641.099,3651.917,3652.186,3648.520,3652.633,0.002,1.018,0.089,-0.458,1.862,0.366,66.667,522.000
3661.752,3649.861,3655.762,3641.189,3651.739,3652.275,3648.610,3652.543,0.002,1.018,0.087,-0.519,1.801,0.366,66.667,523.000
3661.842,3649.861,3655.673,3641.099,3651.828,3652.365,3648.878,3652.275,0.002,1.020,0.085,-0.488,1.770,0.305,66.667,524.000
3661.752,3649.951,3655.405,3641.189,3651.649,3652.186,3649.235,3652.543,0.001,1.019,0.088,-0.458,1.770,0.305,66.667,525.000
3661.305,3649.682,3655.315,3641.189,3651.470,3652.007,3648.967,3652.812,0.001,1.020,0.088,-0.549,1.831,0.397,66.667,526.000
3661.216,3649.414,3655.494,3640.563,3651.470,3652.186,3648.788,3652.365,0.003,1.020,0.085,-0.580,1.831,0.427,66.667,527.000
3661.305,3649.504,3655.315,3641.010,3651.649,3651.917,3648.431,3652.722,0.003,1.020,0.090,-0.580,1.892,0.488,66.667,528.000
3661.305,3649.861,3655.226,3641.010,3651.649,3652.275,3648.431,3652.901,0.003,1.020,0.086,-0.488,1.862,0.488,66.667,529.000
3661.395,3650.040,3655.673,3641.010,3651.202,3652.365,3648.878,3652.722,0.001,1.021,0.085,-0.427,1.831,0.549,66.667,530.000
3661.395,3649.951,3655.315,3641.189,3651.649,3652.275,3648.788,3652.722,0.002,1.020,0.084,-0.549,1.923,0.580,66.667,531.000
3661.573,3649.951,3655.673,3641.099,3652.186,3652.543,3648.610,3652.722,0.001,1.021,0.087,-0.549,1.862,0.641,66.667,532.000
3661.484,3649.414,3655.673,3641.010,3652.186,3652.096,3648.610,3652.633,0.002,1.020,0.085,-0.641,1.831,0.641,66.667,533.000
3661.305,3649.593,3655.494,3640.920,3651.739,3652.365,3648.610,3652.722,0.003,1.019,0.085,-0.702,1.740,0.702,66.667,534.000
3661.484,3649.951,3655.494,3640.920,3651.739,3652.365,3649.057,3652.543,0.002,1.018,0.087,-0.732,1.740,0.702,66.667,535.000
3661.573,3649.951,3655.494,3640.652,3651.828,3652.096,3648.788,3652.365,0.002,1.018,0.086,-0.854,1.770,0.732,66.667,536.000
3661.573,3649.772,3655.494,3640.652,3651.739,3652.365,3649.057,3652.543,0.002,1.018,0.085,-0.885,1.648,0.641,66.667,537.000
3661.663,3649.772,3655.673,3641.368,3651.917,3652.633,3649.235,3652.812,0.001,1.017,0.087,-0.824,1.556,0.763,66.667,538.000
3661.752,3650.219,3655.583,3641.457,3651.917,3652.633,3649.057,3652.633,0.002,1.020,0.091,-0.854,1.648,0.732,66.667,539.000
3661.931,3649.861,3655.315,3640.831,3651.828,3652.543,3648.967,3652.186,0.001,1.018,0.088,-0.702,1.740,0.702,66.667,540.000
3661.931,3649.504,3655.583,3640.831,3651.739,3652.633,3648.788,3652.454,0.003,1.019,0.087,-0.580,1.648,0.732,66.667,541.000
3661.752,3649.504,3655.673,3640.563,3651.828,3652.454,3648.520,3652.633,0.003,1.018,0.088,-0.488,1.709,0.732,66.667,542.000
3661.931,3649.861,3655.315,3640.742,3651.739,3652.275,3649.057,3652.633,0.002,1.019,0.085,-0.458,1.770,0.671,66.667,543.000
3661.931,3649.951,3655.226,3640.742,3652.007,3652.275,3649.325,3652.990,0.002,1.017,0.089,-0.427,1.801,0.519,66.667,544.000
3662.110,3649.861,3655.673,3641.278,3651.917,3652.096,3649.057,3652.365,0.001,1.019,0.087,-0.397,1.892,0.549,66.667,545.000
3661.573,3649.504,3655.315,3640.920,3651.649,3652.096,3649.057,3652.275,0.001,1.019,0.088,-0.397,1.770,0.397,66.667,546.000
3661.931,3649.682,3655.673,3640.563,3652.096,3652.096,3649.057,3652.096,0.002,1.020,0.088,-0.427,1.862,0.275,66.667,547.000
3661.752,3649.861,3655.405,3640.742,3652.186,3652.186,3648.788,3652.365,0.003,1.020,0.088,-0.427,1.831,0.153,66.667,548.000
3661.842,3649.772,3655.315,3641.099,3651.739,3652.096,3648.520,3652.722,0.004,1.019,0.090,-0.458,1.801,0.183,66.667,549.000
3661.752,3649.861,3655.494,3641.189,3651.917,3652.275,3648.699,3652.722,0.003,1.020,0.089,-0.549,1.831,0.244,66.667,550.000
3661.484,3649.682,3655.494,3641.010,3652.096,3652.186,3648.788,3652.812,0.002,1.022,0.089,-0.549,1.770,0.244,66.667,551.000
3661.305,3649.682,3655.583,3640.742,3651.917,3651.828,3648.878,3652.722,0.002,1.022,0.086,-0.549,1.770,0.275,66.667,552.000
3661.752,3649.504,3655.226,3640.831,3651.649,3651.917,3648.520,3652.633,0.001,1.021,0.089,-0.641,1.770,0.427,66.667,553.000
3661.752,3649.682,3655.315,3640.831,3651.917,3652.543,3648.431,3652.365,0.000,1.021,0.087,-0.610,1.770,0.549,66.667,554.000
3661.931,3649.772,3655.405,3640.742,3651.292,3652.365,3648.699,3652.275,0.001,1.020,0.085,-0.580,1.740,0.641,66.667,555.000
3661.752,3649.861,3655.494,3640.831,3651.292,3652.186,3648.788,3652.186,-0.000,1.021,0.085,-0.549,1.678,0.702,66.667,556.000
3661.842,3649.504,3655.405,3640.920,3651.828,3652.365,3648.699,3652.275,0.000,1.020,0.081,-0.610,1.678,0.732,66.667,557.000
3661.573,3649.504,3655.047,3640.742,3651.828,3652.275,3648.610,3652.633,0.000,1.021,0.085,-0.641,1.801,0.763,66.667,558.000
3661.663,3649.861,3655.136,3640.742,3651.828,3652.096,3648.788,3653.080,0.002,1.021,0.086,-0.732,1.801,0.702,66.667,559.000
3661.663,3650.308,3655.315,3640.742,3651.917,3652.543,3649.057,3653.259,0.001,1.020,0.086,-0.824,1.801,0.732,66.667,560.000
3661.663,3650.129,3655.673,3640.742,3651.828,3652.543,3648.788,3652.722,0.001,1.018,0.088,-0.916,1.770,0.732,66.667,561.000
3661.573,3649.861,3655.494,3640.473,3651.381,3652.454,3648.431,3652.275,0.003,1.019,0.088,-1.007,1.770,0.610,66.667,562.000
3661.484,3649.504,3655.941,3640.920,3651.917,3651.917,3648.788,3652.633,0.003,1.019,0.087,-0.946,1.709,0.580,66.667,563.000
3661.395,3649.861,3655.583,3640.831,3651.649,3652.365,3648.520,3652.543,0.003,1.020,0.090,-0.885,1.740,0.671,66.667,564.000
3661.842,3649.951,3655.494,3640.920,3651.739,3652.633,3648.699,3652.812,0.003,1.021,0.089,-0.702,1.709,0.580,66.667,565.000
3661.305,3649.861,3655.494,3641.010,3651.560,3651.917,3648.788,3652.454,0.001,1.022,0.086,-0.580,1.740,0.671,66.667,566.000
3661.216,3649.951,3655.405,3641.189,3651.917,3651.739,3649.057,3652.812,0.001,1.021,0.087,-0.641,1.709,0.671,66.667,567.000
3661.573,3649.861,3655.226,3641.189,3651.739,3651.739,3649.235,3652.633,0.002,1.021,0.088,-0.549,1.678,0.519,66.667,568.000
3661.752,3649.951,3655.315,3641.368,3651.917,3652.096,3648.878,3652.633,0.003,1.022,0.086,-0.488,1.678,0.580,66.667,569.000
3661.663,3650.219,3655.226,3641.368,3651.828,3652.365,3648.878,3652.454,0.002,1.021,0.087,-0.458,1.709,0.519,66.667,570.000
3661.663,3649.951,3655.494,3640.920,3651.828,3652.186,3649.235,3652.365,0.003,1.021,0.090,-0.458,1.862,0.458,66.667,571.000
2415.687,2404.958,2410.055,2395.481,2406.747,2406.300,2403.707,2407.104,0.004,1.019,0.087,-0.458,1.770,0.458,66.667,572.000
-2575.905,-2583.057,-2579.660,-2593.518,-2582.074,-2583.951,-2585.829,-2582.699,0.001,1.019,0.087,-0.610,1.801,0.366,66.667,573.000
-3825.635,-3832.520,-3829.212,-3842.802,-3831.178,-3833.414,-3835.202,-3832.341,0.003,1.017,0.087,-0.549,1.740,0.275,66.667,574.000
-3825.546,-3832.609,-3829.122,-3842.891,-3831.447,-3833.503,-3835.560,-3832.073,0.001,1.019,0.085,-0.549,1.709,0.458,66.667,575.000
-3825.814,-3832.609,-3829.212,-3843.159,-3831.089,-3833.414,-3835.560,-3831.894,0.001,1.019,0.087,-0.580,1.801,0.519,66.667,576.000
-3825.814,-3832.877,-3829.212,-3843.070,-3831.268,-3833.146,-3835.381,-3831.983,0.002,1.020,0.089,-0.427,1.770,0.580,66.667,577.000
-3825.546,-3832.788,-3828.943,-3842.802,-3831.268,-3833.414,-3835.470,-3832.073,0.000,1.021,0.089,-0.488,1.678,0.641,66.667,578.000
-3825.188,-3832.967,-3828.586,-3842.712,-3831.268,-3833.235,-3835.202,-3832.609,0.002,1.021,0.090,-0.488,1.678,0.641,66.667,579.000
-3825.278,-3832.698,-3828.675,-3842.623,-3831.178,-3833.235,-3835.113,-3832.251,0.002,1.021,0.088,-0.488,1.740,0.671,66.667,580.000
-3825.546,-3832.430,-3829.033,-3842.712,-3831.089,-3833.235,-3835.470,-3832.341,0.003,1.020,0.084,-0.549,1.770,0.549,66.667,581.000
-3825.457,-3832.430,-3829.390,-3842.891,-3831.715,-3833.593,-3835.470,-3832.341,0.003,1.021,0.086,-0.610,1.770,0.580,66.667,582.000
-3825.635,-3832.698,-3829.301,-3842.712,-3831.626,-3833.682,-3835.291,-3832.341,0.005,1.019,0.086,-0.519,1.740,0.549,66.667,583.000
-3825.546,-3832.430,-3829.122,-3842.891,-3831.715,-3833.593,-3835.291,-3832.341,0.003,1.019,0.086,-0.641,1.617,0.488,66.667,584.000
-3825.278,-3832.698,-3828.943,-3842.980,-3831.178,-3833.235,-3835.291,-3832.520,0.001,1.019,0.085,-0.702,1.678,0.488,66.667,585.000
-3825.546,-3832.788,-3829.033,-3842.891,-3831.447,-3832.788,-3835.291,-3832.251,0.001,1.016,0.087,-0.793,1.709,0.519,66.667,586.000
-3825.367,-3832.877,-3828.943,-3842.533,-3831.268,-3832.967,-3835.202,-3832.162,0.001,1.019,0.087,-0.824,1.587,0.549,66.667,587.000
-3825.278,-3832.609,-3828.854,-3842.802,-3831.447,-3832.967,-3835.202,-3832.609,0.002,1.021,0.089,-0.824,1.556,0.427,66.667,588.000
-3825.367,-3832.609,-3828.586,-3842.891,-3831.447,-3833.235,-3835.113,-3832.788,0.003,1.021,0.087,-0.732,1.648,0.519,66.667,589.000
-3825.367,-3832.609,-3828.586,-3842.891,-3831.536,-3833.235,-3834.844,-3832.520,0.003,1.021,0.089,-0.671,1.709,0.610,66.667,590.000
-3825.457,-3832.341,-3829.033,-3842.444,-3831.178,-3833.414,-3834.844,-3832.520,0.001,1.021,0.087,-0.671,1.678,0.549,66.667,591.000
-3825.993,-3832.520,-3829.212,-3842.444,-3831.268,-3833.146,-3834.844,-3832.609,0.001,1.021,0.088,-0.610,1.648,0.671,66.667,592.000
-3826.082,-3832.698,-3828.943,-3842.712,-3831.268,-3833.503,-3835.202,-3832.430,0.004,1.021,0.087,-0.549,1.740,0.671,66.667,593.000
-3825.904,-3832.788,-3828.943,-3842.712,-3831.357,-3833.503,-3835.023,-3832.251,0.003,1.021,0.089,-0.458,1.709,0.610,66.667,594.000
-3825.635,-3832.609,-3829.301,-3842.802,-3831.536,-3833.682,-3835.202,-3832.073,0.003,1.019,0.086,-0.458,1.831,0.519,66.667,595.000
-3825.546,-3832.609,-3829.122,-3842.891,-3831.357,-3833.324,-3835.023,-3832.520,0.002,1.020,0.086,-0.641,1.831,0.549,66.667,596.000
-3825.278,-3833.056,-3829.301,-3843.249,-3831.626,-3833.056,-3835.202,-3832.698,0.002,1.021,0.083,-0.580,1.801,0.458,66.667,597.000
-3825.635,-3832.788,-3829.033,-3843.070,-3831.357,-3833.235,-3835.291,-3832.520,0.001,1.019,0.084,-0.671,1.770,0.427,66.667,598.000
-3825.814,-3832.341,-3828.943,-3842.712,-3830.821,-3833.146,-3835.202,-3832.698,0.000,1.017,0.088,-0.702,1.770,0.366,66.667,599.000
-3825.725,-3832.162,-3828.586,-3842.802,-3831.178,-3832.788,-3835.113,-3832.520,0.000,1.017,0.088,-0.702,1.740,0.397,66.667,600.000
-3825.457,-3832.520,-3828.318,-3843.070,-3830.821,-3832.967,-3835.202,-3832.162,0.001,1.020,0.088,-0.763,1.770,0.366,66.667,601.000
-3825.993,-3832.788,-3828.586,-3843.159,-3830.821,-3833.146,-3835.202,-3832.341,0.003,1.018,0.088,-0.671,1.801,0.336,66.667,602.000
-3825.814,-3832.520,-3829.212,-3842.980,-3830.910,-3833.056,-3835.023,-3832.341,0.001,1.020,0.090,-0.488,1.831,0.458,66.667,603.000
-3825.457,-3832.341,-3829.033,-3842.623,-3831.089,-3833.056,-3835.202,-3832.341,0.002,1.020,0.087,-0.427,1.862,0.549,66.667,604.000
-3825.635,-3832.609,-3829.033,-3842.980,-3831.447,-3833.235,-3835.291,-3832.251,0.002,1.021,0.086,-0.397,1.678,0.610,66.667,605.000
-3825.635,-3832.788,-3829.033,-3843.159,-3831.447,-3833.861,-3834.934,-3832.520,0.003,1.021,0.089,-0.397,1.617,0.549,66.667,606.000
-3825.635,-3832.698,-3828.675,-3843.159,-3831.715,-3833.414,-3835.113,-3832.520,0.003,1.020,0.088,-0.458,1.678,0.519,66.667,607.000
-3825.457,-3833.056,-3828.765,-3843.159,-3831.626,-3833.414,-3835.291,-3832.520,0.004,1.021,0.087,-0.488,1.678,0.458,66.667,608.000
-3825.635,-3832.877,-3829.212,-3842.891,-3831.626,-3833.414,-3835.291,-3832.430,0.003,1.021,0.087,-0.488,1.770,0.305,66.667,609.000
-3825.188,-3832.341,-3829.301,-3842.265,-3831.089,-3833.324,-3835.023,-3832.341,0.003,1.018,0.086,-0.580,1.740,0.366,66.667,610.000
-3825.367,-3832.520,-3828.943,-3842.623,-3831.178,-3833.235,-3834.934,-3832.609,0.004,1.020,0.087,-0.732,1.892,0.397,66.667,611.000
-3825.278,-3832.609,-3828.765,-3842.802,-3831.894,-3833.503,-3835.023,-3832.609,0.005,1.019,0.088,-0.793,1.801,0.458,66.667,612.000
-3825.635,-3832.609,-3828.765,-3842.354,-3831.447,-3833.235,-3835.649,-3832.341,0.002,1.018,0.086,-0.793,1.740,0.366,66.667,613.000
-3825.635,-3832.698,-3828.943,-3842.444,-3831.536,-3833.056,-3835.291,-3832.162,0.003,1.021,0.087,-0.824,1.740,0.519,66.667,614.000
-3825.635,-3832.609,-3829.033,-3842.712,-3831.536,-3832.967,-3834.934,-3832.251,0.002,1.021,0.088,-0.702,1.709,0.580,66.667,615.000
-3825.635,-3832.609,-3828.943,-3842.623,-3831.447,-3833.324,-3835.470,-3832.520,0.001,1.019,0.087,-0.641,1.648,0.610,66.667,616.000
-3825.457,-3832.520,-3829.033,-3842.891,-3831.447,-3833.414,-3835.381,-3832.520,-0.000,1.018,0.088,-0.580,1.740,0.519,66.667,617.000
-3825.457,-3832.341,-3829.033,-3842.533,-3831.000,-3833.056,-3835.023,-3832.520,0.001,1.021,0.089,-0.397,1.770,0.580,66.667,618.000
-3825.635,-3832.788,-3828.854,-3842.444,-3831.178,-3833.146,-3835.023,-3832.609,0.000,1.018,0.088,-0.397,1.801,0.641,66.667,619.000
-3825.457,-3833.235,-3829.033,-3842.802,-3831.447,-3833.235,-3835.113,-3832.609,0.003,1.022,0.088,-0.397,1.801,0.641,66.667,620.000
-3825.814,-3833.056,-3829.212,-3843.070,-3831.894,-3833.503,-3835.202,-3832.788,0.002,1.021,0.088,-0.519,1.770,0.610,66.667,621.000
-3825.814,-3832.788,-3829.033,-3843.070,-3831.894,-3833.414,-3835.291,-3832.877,0.003,1.021,0.085,-0.580,1.801,0.580,66.667,622.000
-3825.814,-3832.430,-3828.854,-3842.980,-3831.804,-3833.593,-3835.291,-3832.073,0.004,1.020,0.084,-0.671,1.709,0.519,66.667,623.000
-3825.904,-3832.698,-3828.854,-3842.891,-3831.447,-3833.235,-3835.291,-3832.520,0.002,1.021,0.087,-0.732,1.740,0.427,66.667,624.000
-3825.635,-3832.698,-3828.943,-3842.891,-3831.000,-3833.414,-3835.023,-3832.698,0.000,1.020,0.088,-0.732,1.831,0.366,66.667,625.000
-3825.367,-3832.967,-3829.212,-3842.891,-3831.178,-3833.414,-3835.291,-3832.877,0.001,1.019,0.089,-0.702,1.801,0.397,66.667,626.000
-3825.278,-3832.877,-3828.765,-3842.891,-3831.268,-3833.503,-3835.291,-3832.430,0.002,1.020,0.088,-0.671,1.709,0.488,66.667,627.000
-3825.457,-3832.698,-3828.675,-3842.712,-3831.268,-3833.682,-3834.844,-3832.341,0.003,1.020,0.087,-0.702,1.648,0.458,66.667,628.000
-3825.278,-3832.520,-3828.943,-3842.891,-3831.268,-3833.235,-3835.202,-3832.609,0.001,1.020,0.083,-0.580,1.678,0.641,66.667,629.000
-3825.457,-3832.609,-3829.033,-3842.891,-3831.268,-3833.414,-3835.202,-3832.520,0.002,1.019,0.085,-0.488,1.740,0.610,66.667,630.000
-3825.725,-3832.609,-3828.586,-3842.891,-3831.357,-3833.503,-3835.470,-3832.520,0.003,1.018,0.088,-0.458,1.709,0.610,66.667,631.000
-3825.635,-3832.073,-3828.765,-3842.802,-3831.357,-3833.235,-3835.113,-3832.520,0.002,1.018,0.085,-0.519,1.740,0.610,66.667,632.000
-3825.188,-3832.520,-3828.586,-3842.891,-3831.268,-3833.056,-3835.023,-3832.430,0.002,1.018,0.086,-0.488,1.740,0.488,66.667,633.000
-3825.099,-3833.146,-3829.033,-3843.070,-3830.821,-3832.967,-3835.113,-3832.430,0.002,1.021,0.090,-0.549,1.831,0.519,66.667,634.000
-3824.831,-3832.788,-3829.122,-3842.802,-3831.626,-3833.056,-3835.202,-3832.520,0.001,1.020,0.086,-0.610,1.678,0.458,66.667,635.000
-2579.928,-2587.349,-2583.146,-2597.541,-2586.276,-2587.170,-2590.031,-2587.080,0.001,1.018,0.086,-0.610,1.709,0.519,66.667,636.000
2411.396,2400.577,2406.031,2391.279,2402.187,2402.902,2399.236,2402.634,0.001,1.019,0.083,-0.671,1.740,0.427,66.667,637.000
3661.663,3649.682,3655.583,3640.563,3651.470,3652.275,3648.788,3652.186,0.003,1.018,0.084,-0.610,1.740,0.397,66.667,638.000
3661.305,3649.325,3655.226,3641.010,3651.560,3652.096,3648.967,3652.633,0.003,1.021,0.086,-0.641,1.801,0.366,66.667,639.000
3661.573,3649.682,3654.958,3641.278,3651.739,3652.007,3648.699,3652.543,0.002,1.021,0.087,-0.671,1.740,0.275,66.667,640.000
3661.573,3650.219,3655.494,3641.189,3652.007,3652.186,3648.967,3652.722,0.003,1.019,0.085,-0.580,1.801,0.427,66.667,641.000
3661.573,3649.861,3655.226,3640.742,3651.739,3652.007,3649.057,3652.543,0.003,1.020,0.086,-0.458,1.831,0.458,66.667,642.000
3661.573,3649.682,3655.136,3641.099,3651.917,3652.096,3648.967,3652.543,0.001,1.020,0.086,-0.458,1.770,0.458,66.667,643.000
3661.484,3649.682,3655.673,3641.099,3651.739,3652.365,3648.878,3652.543,0.002,1.022,0.088,-0.397,1.740,0.427,66.667,644.000
3661.484,3649.682,3655.583,3641.010,3651.739,3652.186,3648.967,3652.454,0.004,1.021,0.087,-0.397,1.770,0.488,66.667,645.000
3661.126,3649.593,3655.315,3640.831,3651.649,3652.365,3648.788,3652.275,0.003,1.019,0.085,-0.519,1.770,0.549,66.667,646.000
3661.305,3649.951,3655.405,3640.920,3651.470,3652.454,3649.414,3652.454,0.001,1.019,0.085,-0.641,1.709,0.610,66.667,647.000
3661.484,3650.129,3655.315,3641.010,3651.560,3652.365,3649.057,3652.454,0.001,1.019,0.084,-0.549,1.740,0.580,66.667,648.000
3661.126,3650.040,3655.494,3640.920,3651.202,3652.096,3649.057,3652.543,0.000,1.021,0.085,-0.641,1.648,0.519,66.667,649.000
3661.126,3650.129,3655.405,3640.742,3651.470,3652.096,3648.967,3652.454,0.002,1.021,0.088,-0.702,1.678,0.580,66.667,650.000
3661.484,3650.129,3655.762,3641.010,3651.917,3651.917,3648.878,3652.633,0.001,1.020,0.088,-0.854,1.740,0.610,66.667,651.000
3661.663,3649.682,3655.136,3640.920,3651.739,3652.186,3648.610,3652.990,0.002,1.023,0.082,-0.763,1.709,0.641,66.667,652.000
3661.395,3649.682,3655.583,3640.742,3651.292,3652.186,3648.788,3652.812,0.004,1.022,0.088,-0.702,1.648,0.671,66.667,653.000
3661.126,3649.772,3655.405,3640.831,3651.470,3652.633,3648.878,3652.543,0.003,1.021,0.088,-0.732,1.740,0.763,66.667,654.000
3661.305,3649.951,3655.315,3640.742,3651.917,3652.633,3648.878,3652.543,0.004,1.020,0.093,-0.763,1.709,0.641,66.667,655.000
3661.842,3650.129,3655.226,3640.831,3651.828,3652.365,3648.878,3652.633,0.005,1.018,0.090,-0.641,1.709,0.671,66.667,656.000
3661.931,3649.951,3655.494,3640.563,3651.828,3652.454,3649.235,3652.812,0.004,1.019,0.087,-0.641,1.709,0.610,66.667,657.000
3661.663,3649.682,3655.315,3641.010,3651.917,3652.454,3649.057,3652.990,0.001,1.018,0.086,-0.549,1.709,0.610,66.667,658.000
3661.752,3649.682,3654.958,3641.189,3651.917,3652.096,3648.788,3652.812,0.003,1.018,0.085,-0.580,1.678,0.519,66.667,659.000
3661.573,3649.772,3655.315,3641.010,3651.649,3652.096,3649.057,3652.812,0.004,1.019,0.086,-0.488,1.892,0.488,66.667,660.000
3661.484,3649.861,3655.494,3640.920,3651.828,3652.633,3648.878,3652.722,0.004,1.019,0.085,-0.549,1.801,0.427,66.667,661.000
3661.126,3649.951,3655.673,3641.010,3651.739,3652.096,3648.699,3652.722,0.004,1.020,0.083,-0.519,1.831,0.458,66.667,662.000
3661.484,3649.951,3655.673,3640.920,3651.470,3652.275,3649.057,3652.812,0.004,1.021,0.085,-0.519,1.831,0.397,66.667,663.000
3661.037,3649.772,3655.673,3640.563,3651.649,3652.543,3648.788,3652.275,0.003,1.021,0.087,-0.458,1.709,0.336,66.667,664.000
3660.948,3649.682,3655.941,3640.920,3652.007,3652.365,3648.878,3652.096,0.003,1.020,0.087,-0.519,1.862,0.336,66.667,665.000
3661.395,3649.504,3655.583,3641.010,3651.828,3652.186,3648.699,3652.186,0.001,1.020,0.090,-0.580,1.831,0.427,66.667,666.000
3661.573,3649.861,3655.494,3641.010,3651.649,3652.543,3649.146,3652.543,0.000,1.021,0.088,-0.488,1.923,0.336,66.667,667.000
3661.573,3649.861,3655.494,3641.278,3651.739,3652.633,3648.520,3652.454,0.001,1.022,0.086,-0.519,1.801,0.366,66.667,668.000
3661.484,3649.861,3655.673,3641.368,3651.649,3652.096,3648.967,3652.543,0.001,1.021,0.086,-0.458,1.740,0.397,66.667,669.000
3661.663,3649.593,3655.405,3641.010,3651.917,3652.007,3648.967,3652.722,0.001,1.022,0.085,-0.427,1.801,0.427,66.667,670.000
3661.305,3649.772,3655.315,3640.920,3651.917,3652.365,3648.610,3652.633,0.002,1.020,0.087,-0.458,1.770,0.519,66.667,671.000
3661.037,3649.593,3655.226,3640.920,3651.917,3652.365,3648.967,3652.365,0.002,1.020,0.086,-0.549,1.831,0.671,66.667,672.000
3661.573,3649.682,3655.762,3640.920,3651.739,3652.365,3649.057,3652.543,0.001,1.022,0.087,-0.671,1.831,0.610,66.667,673.000
3662.021,3649.951,3655.315,3640.563,3651.470,3652.275,3649.057,3652.812,0.002,1.023,0.089,-0.702,1.678,0.671,66.667,674.000
3661.931,3650.129,3655.494,3640.742,3651.470,3652.007,3649.057,3652.365,0.002,1.023,0.085,-0.824,1.617,0.671,66.667,675.000
3661.931,3649.861,3655.494,3640.920,3651.739,3652.365,3648.610,3652.365,0.002,1.020,0.088,-0.854,1.617,0.610,66.667,676.000
3662.110,3650.129,3655.315,3640.920,3651.649,3652.096,3648.520,3652.365,0.002,1.019,0.086,-0.824,1.648,0.763,66.667,677.000
3661.842,3650.129,3655.315,3641.099,3651.917,3652.007,3648.967,3652.365,0.000,1.019,0.085,-0.793,1.740,0.763,66.667,678.000
3661.663,3649.682,3655.226,3641.010,3651.917,3652.186,3648.788,3652.454,0.002,1.018,0.084,-0.732,1.678,0.763,66.667,679.000
3661.752,3649.951,3655.315,3641.189,3651.649,3652.365,3648.788,3652.365,0.003,1.020,0.087,-0.549,1.740,0.763,66.667,680.000
3661.573,3649.682,3655.315,3641.189,3651.828,3652.365,3648.788,3652.365,0.005,1.020,0.088,-0.458,1.740,0.732,66.667,681.000
3662.021,3649.593,3655.047,3640.742,3651.649,3651.828,3648.788,3652.633,0.004,1.019,0.084,-0.458,1.801,0.702,66.667,682.000
3662.021,3649.682,3655.583,3640.920,3651.739,3652.275,3648.967,3652.812,0.004,1.020,0.085,-0.519,1.770,0.641,66.667,683.000
3661.484,3649.414,3655.673,3640.742,3652.007,3652.365,3649.414,3652.812,0.004,1.020,0.086,-0.519,1.740,0.549,66.667,684.000
3661.305,3649.682,3655.226,3640.742,3651.739,3652.096,3648.878,3652.633,0.004,1.019,0.088,-0.580,1.770,0.427,66.667,685.000
3661.484,3650.129,3655.047,3640.920,3651.649,3652.633,3648.788,3652.633,0.003,1.020,0.088,-0.702,1.740,0.427,66.667,686.000
3661.752,3649.772,3655.315,3641.189,3651.917,3652.633,3648.967,3652.543,0.002,1.018,0.088,-0.641,1.740,0.397,66.667,687.000
3661.573,3649.861,3655.405,3641.099,3651.739,3652.543,3648.967,3652.633,0.003,1.019,0.090,-0.702,1.740,0.397,66.667,688.000
3661.752,3650.040,3655.762,3641.010,3651.917,3652.365,3648.967,3652.722,0.003,1.020,0.086,-0.702,1.801,0.305,66.667,689.000
3661.484,3650.129,3655.494,3640.831,3652.186,3652.543,3649.325,3652.901,0.002,1.021,0.090,-0.610,1.770,0.366,66.667,690.000
3661.484,3649.504,3655.673,3641.189,3651.917,3652.275,3649.057,3652.722,0.004,1.021,0.090,-0.549,1.831,0.427,66.667,691.000
3661.663,3649.682,3655.673,3640.920,3652.186,3652.186,3648.610,3652.722,0.003,1.022,0.086,-0.458,1.801,0.488,66.667,692.000
3661.663,3649.951,3655.315,3640.920,3652.186,3652.007,3648.610,3652.633,0.003,1.020,0.086,-0.305,1.770,0.458,66.667,693.000
3661.305,3649.951,3655.047,3641.368,3652.096,3651.739,3648.699,3652.365,0.002,1.019,0.086,-0.305,1.831,0.488,66.667,694.000
3661.484,3649.951,3655.047,3641.368,3651.828,3652.096,3648.699,3652.454,0.003,1.021,0.088,-0.305,1.862,0.488,66.667,695.000
3661.663,3650.129,3655.583,3640.920,3651.470,3652.096,3648.967,3652.633,0.003,1.020,0.085,-0.336,1.801,0.458,66.667,696.000
3661.573,3649.772,3655.494,3641.099,3651.381,3652.543,3649.057,3652.901,0.003,1.020,0.084,-0.458,1.831,0.580,66.667,697.000
3661.216,3649.504,3655.494,3640.563,3651.649,3652.454,3648.788,3652.543,0.000,1.019,0.085,-0.549,1.770,0.610,66.667,698.000
3661.484,3649.682,3655.762,3640.563,3651.649,3652.365,3648.610,3652.186,0.002,1.021,0.084,-0.610,1.770,0.580,66.667,699.000
2415.598,2404.869,2410.680,2395.481,2406.478,2406.747,2403.081,2406.836,0.001,1.019,0.084,-0.763,1.740,0.580,66.667,700.000
-2575.905,-2583.594,-2579.302,-2593.786,-2582.252,-2583.772,-2585.918,-2583.057,0.000,1.020,0.085,-0.824,1.617,0.580,66.667,701.000
-3825.725,-3832.609,-3828.943,-3842.891,-3831.626,-3833.056,-3834.844,-3832.698,0.000,1.018,0.087,-0.885,1.648,0.549,66.667,702.000
-3825.546,-3832.520,-3828.943,-3842.891,-3831.447,-3832.967,-3835.113,-3832.520,0.001,1.018,0.085,-0.854,1.740,0.549,66.667,703.000
-3825.635,-3832.430,-3829.033,-3842.980,-3831.626,-3832.967,-3835.113,-3832.162,0.002,1.018,0.086,-0.732,1.770,0.641,66.667,704.000
-3825.367,-3832.609,-3829.033,-3842.623,-3831.178,-3833.056,-3835.202,-3832.073,0.003,1.020,0.088,-0.671,1.709,0.702,66.667,705.000
-3825.367,-3832.967,-3828.943,-3842.533,-3831.268,-3833.146,-3835.649,-3832.162,0.002,1.020,0.089,-0.519,1.770,0.885,66.667,706.000
-3825.457,-3832.698,-3828.586,-3842.533,-3831.357,-3833.056,-3835.202,-3831.983,0.004,1.020,0.091,-0.549,1.770,0.732,66.667,707.000
-3825.635,-3832.788,-3828.765,-3842.712,-3831.626,-3833.146,-3835.470,-3832.251,0.003,1.020,0.086,-0.549,1.678,0.793,66.667,708.000
-3825.814,-3832.788,-3828.765,-3843.070,-3831.447,-3833.771,-3835.202,-3832.520,0.005,1.019,0.087,-0.549,1.740,0.702,66.667,709.000
-3825.814,-3832.609,-3828.765,-3842.712,-3831.447,-3833.235,-3835.202,-3832.073,0.002,1.019,0.089,-0.671,1.740,0.610,66.667,710.000
-3825.546,-3832.430,-3829.033,-3842.533,-3831.447,-3833.235,-3835.560,-3832.341,0.001,1.019,0.086,-0.641,1.678,0.519,66.667,711.000
-3825.635,-3832.698,-3829.390,-3842.891,-3831.447,-3833.950,-3835.381,-3832.341,0.003,1.020,0.085,-0.641,1.709,0.366,66.667,712.000
-3826.082,-3832.967,-3828.943,-3843.070,-3831.178,-3833.414,-3835.113,-3832.430,0.002,1.019,0.089,-0.702,1.801,0.366,66.667,713.000
-3825.546,-3832.609,-3829.212,-3842.533,-3830.910,-3833.414,-3835.291,-3832.609,0.004,1.017,0.088,-0.732,1.770,0.366,66.667,714.000
-3825.814,-3832.609,-3828.943,-3842.802,-3831.178,-3833.056,-3835.381,-3832.698,0.003,1.019,0.087,-0.580,1.770,0.366,66.667,715.000
-3825.814,-3832.609,-3828.675,-3842.802,-3831.804,-3833.324,-3835.202,-3832.341,0.003,1.020,0.087,-0.641,1.709,0.366,66.667,716.000
-3825.814,-3832.520,-3829.033,-3842.802,-3831.536,-3833.146,-3835.202,-3832.341,0.001,1.017,0.087,-0.519,1.740,0.427,66.667,717.000
-3825.814,-3832.341,-3829.212,-3843.070,-3831.268,-3832.788,-3835.470,-3832.341,0.002,1.018,0.084,-0.458,1.770,0.366,66.667,718.000
-3825.546,-3832.520,-3829.212,-3843.070,-3831.357,-3833.235,-3835.291,-3832.162,0.001,1.021,0.084,-0.397,1.831,0.519,66.667,719.000
-3825.457,-3832.877,-3828.675,-3842.802,-3830.821,-3833.503,-3835.023,-3832.341,0.002,1.022,0.086,-0.305,1.892,0.519,66.667,720.000
-3825.367,-3832.698,-3828.943,-3842.891,-3831.178,-3833.414,-3835.291,-3832.341,0.001,1.021,0.089,-0.458,1.892,0.427,66.667,721.000
-3825.457,-3832.341,-3829.212,-3843.070,-3831.626,-3833.235,-3835.202,-3832.609,0.002,1.021,0.087,-0.397,1.801,0.488,66.667,722.000
-3825.367,-3832.609,-3829.033,-3842.980,-3831.357,-3833.235,-3835.202,-3832.609,0.002,1.017,0.087,-0.549,1.770,0.427,66.667,723.000
-3825.367,-3832.162,-3828.854,-3842.891,-3831.000,-3833.414,-3835.202,-3832.341,0.003,1.019,0.087,-0.610,1.740,0.336,66.667,724.000
-3825.188,-3832.162,-3828.943,-3842.712,-3831.089,-3833.503,-3834.934,-3832.430,0.002,1.019,0.085,-0.671,1.801,0.305,66.667,725.000
-3825.546,-3832.609,-3828.943,-3843.159,-3831.357,-3833.503,-3835.470,-3832.430,0.002,1.018,0.088,-0.793,1.709,0.427,66.667,726.000
-3825.367,-3832.877,-3829.033,-3842.980,-3831.357,-3833.056,-3835.738,-3832.162,0.000,1.019,0.086,-0.824,1.648,0.549,66.667,727.000
-3825.457,-3832.520,-3829.748,-3843.070,-3831.357,-3833.056,-3835.291,-3832.430,0.003,1.019,0.087,-0.854,1.740,0.610,66.667,728.000
-3825.635,-3832.520,-3829.748,-3843.070,-3831.626,-3832.967,-3835.202,-3832.341,0.003,1.020,0.087,-0.946,1.617,0.641,66.667,729.000
-3825.546,-3832.341,-3829.390,-3842.891,-3831.268,-3832.967,-3835.113,-3832.609,0.003,1.021,0.086,-0.793,1.587,0.763,66.667,730.000
-3825.725,-3832.877,-3829.033,-3842.623,-3831.089,-3833.146,-3835.738,-3832.609,0.003,1.021,0.087,-0.732,1.709,0.793,66.667,731.000
-3825.993,-3832.788,-3828.943,-3842.891,-3831.536,-3833.324,-3835.917,-3832.967,0.003,1.020,0.087,-0.732,1.740,0.763,66.667,732.000
-3825.904,-3832.698,-3828.586,-3842.891,-3831.357,-3833.414,-3835.470,-3832.698,0.003,1.021,0.085,-0.580,1.831,0.641,66.667,733.000
-3826.082,-3832.430,-3828.765,-3843.070,-3831.268,-3833.235,-3835.560,-3832.162,0.002,1.019,0.085,-0.580,1.709,0.641,66.667,734.000
-3825.725,-3832.430,-3828.943,-3842.891,-3831.268,-3833.503,-3835.381,-3832.341,0.002,1.021,0.086,-0.610,1.678,0.610,66.667,735.000
-3825.635,-3833.056,-3829.390,-3842.802,-3831.178,-3833.593,-3835.560,-3832.609,0.002,1.020,0.086,-0.610,1.770,0.549,66.667,736.000
-3825.814,-3832.788,-3829.301,-3842.891,-3831.178,-3833.324,-3835.470,-3833.056,0.003,1.020,0.086,-0.641,1.740,0.519,66.667,737.000
-3825.814,-3832.251,-3828.675,-3842.891,-3831.178,-3833.503,-3835.560,-3832.698,0.003,1.019,0.087,-0.641,1.709,0.580,66.667,738.000
-3825.725,-3832.609,-3828.765,-3843.249,-3831.000,-3833.324,-3835.470,-3832.162,0.002,1.019,0.085,-0.641,1.770,0.549,66.667,739.000
-3825.635,-3832.609,-3828.765,-3842.891,-3831.000,-3833.235,-3835.649,-3832.073,0.001,1.019,0.086,-0.610,1.740,0.549,66.667,740.000
-3825.814,-3832.609,-3828.586,-3842.444,-3831.000,-3833.056,-3835.202,-3832.251,0.003,1.019,0.086,-0.610,1.831,0.519,66.667,741.000
-3825.278,-3832.788,-3829.212,-3842.802,-3831.268,-3832.788,-3835.470,-3832.430,0.003,1.020,0.086,-0.488,1.801,0.519,66.667,742.000
-3825.367,-3832.341,-3829.212,-3842.980,-3831.178,-3833.235,-3835.560,-3832.698,0.002,1.020,0.085,-0.458,1.923,0.366,66.667,743.000
-3825.010,-3832.430,-3829.033,-3842.712,-3831.715,-3832.877,-3835.202,-3832.162,0.001,1.021,0.087,-0.336,1.770,0.427,66.667,744.000
-3825.278,-3832.877,-3828.854,-3842.891,-3831.894,-3832.967,-3835.202,-3832.162,0.003,1.019,0.084,-0.458,1.740,0.458,66.667,745.000
-3825.814,-3832.698,-3828.854,-3843.249,-3831.447,-3833.414,-3835.202,-3832.788,0.003,1.019,0.087,-0.488,1.770,0.488,66.667,746.000
-3825.725,-3832.609,-3828.854,-3843.159,-3831.178,-3833.235,-3835.023,-3832.877,0.003,1.020,0.086,-0.458,1.740,0.519,66.667,747.000
-3825.725,-3832.788,-3829.122,-3843.070,-3831.268,-3833.146,-3835.023,-3832.609,0.004,1.021,0.085,-0.580,1.831,0.366,66.667,748.000
-3825.457,-3832.967,-3829.390,-3842.980,-3831.626,-3833.235,-3835.381,-3832.430,0.002,1.020,0.089,-0.519,1.862,0.305,66.667,749.000
-3825.635,-3833.056,-3829.122,-3842.980,-3831.447,-3833.503,-3835.470,-3832.788,0.000,1.019,0.088,-0.580,1.709,0.397,66.667,750.000
-3825.904,-3832.788,-3828.765,-3843.249,-3831.178,-3833.503,-3835.738,-3832.430,0.002,1.019,0.088,-0.610,1.831,0.488,66.667,751.000
-3825.635,-3832.698,-3829.390,-3843.249,-3831.536,-3833.503,-3835.470,-3832.430,0.001,1.020,0.086,-0.732,1.770,0.580,66.667,752.000
-3825.367,-3832.788,-3829.212,-3843.338,-3831.715,-3833.414,-3835.291,-3832.430,0.000,1.020,0.088,-0.641,1.770,0.549,66.667,753.000
-3825.188,-3832.520,-3829.212,-3843.070,-3831.268,-3833.324,-3835.202,-3832.251,0.000,1.019,0.087,-0.641,1.770,0.488,66.667,754.000
-3825.367,-3832.520,-3828.854,-3843.070,-3831.178,-3833.235,-3835.470,-3832.430,0.002,1.021,0.085,-0.610,1.709,0.641,66.667,755.000
-3825.188,-3832.609,-3828.675,-3842.802,-3831.447,-3833.056,-3834.934,-3832.609,0.001,1.022,0.088,-0.549,1.709,0.580,66.667,756.000
-3825.457,-3832.609,-3828.675,-3842.623,-3831.804,-3833.056,-3834.844,-3832.788,0.002,1.023,0.090,-0.549,1.648,0.671,66.667,757.000
-3825.367,-3832.520,-3828.943,-3842.980,-3831.268,-3833.503,-3835.381,-3832.520,0.002,1.021,0.088,-0.671,1.740,0.610,66.667,758.000
-3825.278,-3832.520,-3828.943,-3842.802,-3831.089,-3833.414,-3835.560,-3832.251,0.003,1.021,0.089,-0.641,1.740,0.702,66.667,759.000
-3825.546,-3832.520,-3828.854,-3842.802,-3831.536,-3833.056,-3835.291,-3832.251,0.003,1.021,0.084,-0.610,1.678,0.580,66.667,760.000
-3825.725,-3832.609,-3828.765,-3842.891,-3831.626,-3832.967,-3835.023,-3832.341,0.002,1.020,0.087,-0.671,1.678,0.580,66.667,761.000
-3825.635,-3832.520,-3828.586,-3842.891,-3831.447,-3832.877,-3835.202,-3832.430,0.001,1.020,0.087,-0.641,1.740,0.549,66.667,762.000
-3825.457,-3832.788,-3828.765,-3842.802,-3831.536,-3833.056,-3834.844,-3832.609,0.003,1.021,0.089,-0.702,1.709,0.458,66.667,763.000
-2579.570,-2587.706,-2583.504,-2597.720,-2586.186,-2587.796,-2590.031,-2586.812,0.003,1.019,0.089,-0.702,1.740,0.427,66.667,764.000
2411.664,2400.667,2406.121,2391.726,2402.723,2402.455,2399.326,2403.170,0.002,1.020,0.091,-0.702,1.709,0.519,66.667,765.000
3661.395,3649.504,3655.673,3641.010,3651.739,3652.186,3649.057,3652.365,0.002,1.021,0.088,-0.671,1.678,0.580,66.667,766.000
3661.663,3649.504,3655.673,3641.010,3651.560,3652.096,3648.788,3652.543,0.002,1.020,0.086,-0.641,1.678,0.580,66.667,767.000
3661.216,3649.235,3655.405,3640.742,3651.560,3652.186,3649.057,3652.543,0.002,1.020,0.087,-0.641,1.740,0.671,66.667,768.000
3661.752,3649.861,3655.226,3640.920,3651.739,3652.096,3648.878,3652.365,0.002,1.020,0.088,-0.549,1.770,0.671,66.667,769.000
3661.931,3649.951,3655.226,3640.920,3652.186,3651.917,3648.610,3652.275,0.000,1.020,0.089,-0.549,1.709,0.519,66.667,770.000
3661.663,3649.861,3655.136,3640.563,3652.186,3652.186,3648.967,3652.543,0.003,1.018,0.089,-0.488,1.740,0.610,66.667,771.000
3661.752,3649.861,3655.315,3640.920,3652.096,3652.275,3648.967,3652.812,0.002,1.018,0.083,-0.458,1.770,0.458,66.667,772.000
3661.842,3650.129,3655.673,3641.368,3652.007,3652.365,3649.057,3652.633,0.003,1.019,0.085,-0.580,1.831,0.519,66.667,773.000
3661.752,3649.861,3655.315,3641.099,3651.917,3652.007,3648.967,3652.990,0.001,1.018,0.088,-0.549,1.923,0.458,66.667,774.000
3661.931,3649.682,3655.405,3640.920,3651.560,3651.649,3648.967,3652.633,0.002,1.018,0.091,-0.488,1.831,0.458,66.667,775.000
3661.842,3650.040,3655.136,3640.742,3651.292,3652.096,3648.788,3652.543,0.001,1.017,0.090,-0.549,1.862,0.366,66.667,776.000
3661.573,3649.951,3655.315,3641.010,3651.649,3652.543,3648.520,3653.080,0.004,1.019,0.087,-0.641,1.831,0.458,66.667,777.000
3661.573,3649.772,3655.315,3641.457,3651.828,3652.543,3648.967,3653.169,0.003,1.019,0.086,-0.732,1.770,0.397,66.667,778.000
3661.484,3649.861,3655.226,3641.010,3651.739,3652.275,3649.235,3652.722,0.001,1.021,0.085,-0.641,1.801,0.397,66.667,779.000
3661.484,3649.772,3655.226,3640.920,3651.649,3652.096,3649.235,3652.186,0.000,1.021,0.084,-0.610,1.709,0.427,66.667,780.000
3661.752,3649.861,3655.673,3641.010,3651.470,3652.365,3649.235,3652.365,0.000,1.021,0.085,-0.519,1.801,0.488,66.667,781.000
3661.752,3649.504,3655.315,3641.189,3651.739,3652.186,3648.967,3652.275,0.002,1.022,0.086,-0.519,1.862,0.580,66.667,782.000
3662.021,3649.861,3655.673,3641.189,3651.917,3652.454,3648.967,3652.812,0.004,1.021,0.086,-0.397,1.740,0.488,66.667,783.000
3662.021,3650.129,3655.673,3640.831,3651.917,3652.365,3648.788,3653.080,0.005,1.021,0.089,-0.458,1.770,0.549,66.667,784.000
3661.484,3649.772,3655.315,3640.742,3651.292,3652.186,3648.967,3652.722,0.002,1.021,0.089,-0.519,1.831,0.549,66.667,785.000
3661.216,3649.414,3655.494,3640.920,3651.292,3651.917,3648.967,3652.365,0.002,1.019,0.089,-0.580,1.678,0.671,66.667,786.000
3661.573,3649.593,3655.315,3641.010,3651.739,3652.275,3649.146,3652.365,0.002,1.020,0.088,-0.732,1.617,0.610,66.667,787.000
3662.021,3649.682,3655.047,3641.189,3651.739,3652.275,3649.146,3652.275,0.002,1.021,0.088,-0.732,1.678,0.549,66.667,788.000
3661.573,3649.682,3655.136,3641.368,3652.007,3652.365,3648.788,3652.812,0.003,1.021,0.087,-0.824,1.678,0.580,66.667,789.000
3661.573,3649.772,3655.494,3641.189,3652.096,3652.543,3648.967,3652.454,0.003,1.019,0.092,-0.763,1.648,0.519,66.667,790.000
3661.395,3649.682,3654.779,3640.473,3651.470,3652.365,3649.146,3652.633,0.001,1.018,0.088,-0.763,1.709,0.580,66.667,791.000
3661.126,3649.861,3654.689,3640.473,3651.739,3652.007,3648.967,3652.543,0.002,1.018,0.085,-0.580,1.770,0.641,66.667,792.000
3661.395,3649.682,3654.868,3640.473,3651.649,3652.007,3649.057,3652.990,0.001,1.019,0.089,-0.488,1.831,0.610,66.667,793.000
3661.305,3649.504,3655.047,3640.563,3651.649,3651.917,3648.878,3652.901,0.005,1.020,0.087,-0.519,1.740,0.610,66.667,794.000
3661.305,3649.414,3655.136,3640.831,3651.917,3651.917,3649.057,3652.454,0.003,1.022,0.087,-0.336,1.770,0.671,66.667,795.000
3661.216,3649.504,3655.673,3641.010,3651.739,3652.186,3649.235,3652.543,0.002,1.022,0.087,-0.305,1.801,0.549,66.667,796.000
3661.573,3649.951,3655.494,3640.742,3651.739,3652.275,3649.146,3652.812,0.004,1.022,0.088,-0.397,1.770,0.458,66.667,797.000
3661.573,3649.951,3655.941,3641.010,3652.096,3652.365,3648.878,3652.633,0.003,1.020,0.086,-0.519,1.740,0.397,66.667,798.000
3661.484,3649.682,3655.673,3641.368,3652.186,3652.365,3648.967,3652.454,0.004,1.021,0.086,-0.793,1.801,0.275,66.667,799.000
3661.931,3649.414,3655.226,3641.010,3652.096,3652.365,3648.788,3652.543,0.003,1.020,0.085,-0.854,1.831,0.275,66.667,800.000
3662.021,3649.682,3655.136,3640.652,3651.917,3652.096,3649.325,3652.990,0.000,1.020,0.088,-0.763,1.709,0.305,66.667,801.000
3661.573,3649.593,3655.494,3640.563,3651.649,3652.543,3649.146,3653.080,0.000,1.018,0.086,-0.854,1.740,0.427,66.667,802.000
3661.573,3649.772,3655.673,3640.920,3651.828,3652.365,3648.878,3652.454,0.002,1.019,0.090,-0.854,1.831,0.458,66.667,803.000
3661.752,3649.861,3655.047,3640.742,3651.470,3651.917,3648.520,3652.454,0.000,1.020,0.089,-0.702,1.770,0.488,66.667,804.000
3661.573,3649.504,3654.779,3640.920,3651.202,3651.828,3648.341,3652.096,-0.001,1.019,0.089,-0.549,1.801,0.549,66.667,805.000
3661.573,3649.861,3655.226,3640.831,3651.292,3652.275,3648.431,3652.096,0.001,1.020,0.086,-0.458,1.770,0.763,66.667,806.000
3661.573,3649.682,3655.494,3641.010,3651.470,3652.633,3648.341,3652.543,0.002,1.021,0.085,-0.336,1.770,0.763,66.667,807.000
3661.573,3649.772,3655.315,3640.920,3651.828,3652.096,3648.699,3652.543,0.001,1.021,0.083,-0.336,1.770,0.732,66.667,808.000
3661.573,3649.593,3655.226,3640.920,3651.649,3652.096,3648.699,3652.543,0.002,1.021,0.084,-0.336,1.831,0.702,66.667,809.000
3661.573,3649.772,3655.315,3640.742,3651.470,3652.365,3649.057,3652.990,0.002,1.022,0.086,-0.458,1.801,0.519,66.667,810.000
3661.931,3649.504,3655.494,3640.652,3651.649,3652.186,3648.610,3652.633,0.004,1.020,0.086,-0.519,1.801,0.519,66.667,811.000
3661.752,3649.414,3655.494,3641.010,3651.649,3652.096,3648.431,3652.901,0.003,1.019,0.086,-0.580,1.801,0.397,66.667,812.000
3661.573,3649.951,3655.226,3641.189,3651.828,3652.633,3648.610,3652.812,0.003,1.018,0.086,-0.610,1.801,0.305,66.667,813.000
3661.573,3649.682,3655.315,3641.099,3651.917,3652.543,3648.878,3652.722,0.002,1.019,0.087,-0.732,1.770,0.427,66.667,814.000
3661.752,3649.682,3655.315,3640.831,3651.739,3652.186,3648.878,3652.633,0.003,1.020,0.090,-0.854,1.831,0.397,66.667,815.000
3661.305,3649.861,3655.047,3641.010,3651.649,3652.186,3649.146,3652.454,0.000,1.021,0.093,-0.793,1.770,0.488,66.667,816.000
3661.752,3649.504,3655.047,3640.742,3651.649,3652.543,3649.057,3652.275,-0.001,1.021,0.089,-0.854,1.678,0.488,66.667,817.000
3662.110,3649.861,3655.405,3641.010,3651.739,3652.633,3649.057,3652.186,0.000,1.020,0.089,-0.793,1.648,0.519,66.667,818.000
3661.573,3649.504,3655.762,3641.099,3651.828,3652.543,3648.967,3652.365,0.001,1.019,0.087,-0.641,1.678,0.610,66.667,819.000
3661.931,3649.593,3655.494,3640.920,3651.739,3652.543,3648.520,3652.722,0.002,1.019,0.087,-0.549,1.709,0.702,66.667,820.000
3661.752,3649.414,3655.315,3640.742,3651.739,3652.722,3648.610,3652.812,0.002,1.021,0.086,-0.427,1.709,0.763,66.667,821.000
3661.484,3649.504,3655.047,3640.920,3651.649,3652.633,3648.878,3652.812,0.001,1.023,0.087,-0.336,1.709,0.671,66.667,822.000
3661.484,3649.951,3655.494,3640.920,3651.917,3652.633,3648.610,3652.454,0.003,1.020,0.085,-0.458,1.678,0.641,66.667,823.000
3661.663,3649.951,3655.226,3641.099,3652.096,3652.186,3648.520,3652.186,0.004,1.020,0.085,-0.488,1.709,0.641,66.667,824.000
3661.305,3649.682,3655.315,3640.742,3652.007,3651.917,3648.341,3652.365,0.004,1.019,0.086,-0.610,1.770,0.519,66.667,825.000
3661.484,3649.772,3655.405,3640.831,3651.828,3651.917,3648.788,3652.543,0.002,1.019,0.088,-0.732,1.801,0.397,66.667,826.000
3661.216,3649.682,3655.583,3641.189,3651.917,3651.739,3648.967,3652.543,0.004,1.019,0.088,-0.732,1.801,0.305,66.667,827.000
2415.777,2404.958,2410.502,2395.839,2406.478,2406.657,2404.064,2407.194,0.003,1.018,0.086,-0.732,1.770,0.214,66.667,828.000
-2575.458,-2583.594,-2579.123,-2593.339,-2582.342,-2583.683,-2585.739,-2582.610,0.002,1.021,0.088,-0.671,1.709,0.366,66.667,829.000
-3825.367,-3832.520,-3828.765,-3842.980,-3831.000,-3833.235,-3835.738,-3832.430,0.002,1.021,0.091,-0.610,1.709,0.397,66.667,830.000
-3825.457,-3832.609,-3828.496,-3842.980,-3831.268,-3833.593,-3835.113,-3832.698,0.002,1.021,0.091,-0.610,1.770,0.549,66.667,831.000
-3825.904,-3832.967,-3828.943,-3842.802,-3831.178,-3833.324,-3835.202,-3832.430,0.001,1.021,0.087,-0.641,1.740,0.488,66.667,832.000
-3825.814,-3832.698,-3829.033,-3842.623,-3831.268,-3833.503,-3835.470,-3832.609,0.001,1.021,0.086,-0.488,1.740,0.610,66.667,833.000
-3825.814,-3832.698,-3828.765,-3842.533,-3831.089,-3833.503,-3835.291,-3832.520,0.002,1.021,0.087,-0.488,1.740,0.610,66.667,834.000
-3825.457,-3832.788,-3828.765,-3842.891,-3831.268,-3833.146,-3835.381,-3832.251,0.004,1.021,0.084,-0.427,1.678,0.641,66.667,835.000
-3825.278,-3832.609,-3828.765,-3843.070,-3831.268,-3833.146,-3835.291,-3832.430,0.002,1.020,0.085,-0.519,1.770,0.519,66.667,836.000
-3825.814,-3832.520,-3828.586,-3843.427,-3831.268,-3833.235,-3835.202,-3832.520,0.003,1.018,0.084,-0.549,1.770,0.519,66.667,837.000
-3826.082,-3832.430,-3828.943,-3842.891,-3831.626,-3833.235,-3835.113,-3832.788,0.002,1.018,0.085,-0.610,1.740,0.397,66.667,838.000
-3826.082,-3832.520,-3829.212,-3842.891,-3831.447,-3833.146,-3835.291,-3832.698,0.000,1.018,0.084,-0.549,1.770,0.366,66.667,839.000
-3825.725,-3832.520,-3829.122,-3842.891,-3831.447,-3832.788,-3835.113,-3832.520,0.000,1.019,0.086,-0.641,1.740,0.336,66.667,840.000
-3825.635,-3832.788,-3829.033,-3843.070,-3831.178,-3833.146,-3835.381,-3832.251,0.001,1.019,0.088,-0.671,1.801,0.427,66.667,841.000
-3825.725,-3832.609,-3829.033,-3843.249,-3831.268,-3833.414,-3835.202,-3832.698,0.004,1.019,0.087,-0.671,1.801,0.397,66.667,842.000
-3826.172,-3832.609,-3828.586,-3842.980,-3831.000,-3833.593,-3835.023,-3832.520,0.003,1.020,0.086,-0.610,1.740,0.427,66.667,843.000
-3825.725,-3832.341,-3828.675,-3843.070,-3831.178,-3833.056,-3835.202,-3832.520,0.002,1.021,0.088,-0.641,1.740,0.580,66.667,844.000
-3825.457,-3832.162,-3828.765,-3842.802,-3831.268,-3833.056,-3835.023,-3832.162,0.001,1.021,0.088,-0.641,1.740,0.549,66.667,845.000
-3825.457,-3832.251,-3828.854,-3842.802,-3830.910,-3833.324,-3835.202,-3832.162,0.002,1.020,0.086,-0.580,1.740,0.610,66.667,846.000
-3825.367,-3833.235,-3828.943,-3842.980,-3831.626,-3833.414,-3835.291,-3832.162,0.002,1.019,0.084,-0.580,1.770,0.702,66.667,847.000
-3825.725,-3833.146,-3829.122,-3842.802,-3831.536,-3833.235,-3835.202,-3832.520,0.002,1.019,0.086,-0.641,1.740,0.671,66.667,848.000
-3825.278,-3832.788,-3828.943,-3842.712,-3831.268,-3833.503,-3835.202,-3832.520,0.003,1.019,0.088,-0.580,1.801,0.671,66.667,849.000
-3825.367,-3832.788,-3828.854,-3842.354,-3831.447,-3833.414,-3835.023,-3832.520,0.003,1.021,0.088,-0.641,1.801,0.671,66.667,850.000
-3825.635,-3832.520,-3829.033,-3842.802,-3831.447,-3833.414,-3834.934,-3832.251,0.003,1.021,0.089,-0.580,1.770,0.671,66.667,851.000
-3825.457,-3832.788,-3828.765,-3842.802,-3831.357,-3833.414,-3834.844,-3832.341,0.004,1.020,0.087,-0.610,1.740,0.580,66.667,852.000
-3825.725,-3832.609,-3828.765,-3842.802,-3831.715,-3833.056,-3835.470,-3832.520,0.003,1.020,0.089,-0.610,1.801,0.549,66.667,853.000
-3825.904,-3832.698,-3829.033,-3842.712,-3831.447,-3833.235,-3835.828,-3832.520,0.003,1.021,0.088,-0.641,1.831,0.488,66.667,854.000
-3825.635,-3832.788,-3828.943,-3843.070,-3831.268,-3833.503,-3835.381,-3832.341,0.003,1.021,0.086,-0.671,1.770,0.397,66.667,855.000
-3825.725,-3833.056,-3828.854,-3842.802,-3831.447,-3833.414,-3834.844,-3832.251,0.004,1.019,0.086,-0.671,1.770,0.488,66.667,856.000
-3825.904,-3832.967,-3829.033,-3842.623,-3831.447,-3833.056,-3835.202,-3832.520,0.004,1.021,0.089,-0.671,1.770,0.519,66.667,857.000
-3825.546,-3832.341,-3829.212,-3842.802,-3831.626,-3833.056,-3835.470,-3833.146,0.005,1.020,0.091,-0.702,1.770,0.488,66.667,858.000
-3825.814,-3832.251,-3829.122,-3842.891,-3831.268,-3833.235,-3835.202,-3832.609,0.002,1.020,0.086,-0.610,1.770,0.519,66.667,859.000
-3825.457,-3832.788,-3829.301,-3843.159,-3831.626,-3833.414,-3834.844,-3832.788,0.001,1.020,0.084,-0.641,1.770,0.519,66.667,860.000
-3825.367,-3832.788,-3829.122,-3843.070,-3831.626,-3833.235,-3834.666,-3832.341,0.001,1.019,0.083,-0.549,1.740,0.458,66.667,861.000
-3825.635,-3832.520,-3828.765,-3842.891,-3831.626,-3833.414,-3835.023,-3832.341,0.001,1.018,0.087,-0.580,1.709,0.488,66.667,862.000
-3825.904,-3832.698,-3828.765,-3843.070,-3831.626,-3833.235,-3835.023,-3832.341,0.002,1.018,0.087,-0.641,1.740,0.549,66.667,863.000
-3825.635,-3832.788,-3828.854,-3842.891,-3831.268,-3833.235,-3835.202,-3832.609,0.002,1.018,0.085,-0.610,1.740,0.488,66.667,864.000
-3825.457,-3832.698,-3829.122,-3842.712,-3831.447,-3833.235,-3835.470,-3832.609,0.001,1.019,0.085,-0.580,1.801,0.427,66.667,865.000
-3825.904,-3832.341,-3828.943,-3842.802,-3831.715,-3833.414,-3835.470,-3832.609,0.002,1.020,0.087,-0.488,1.831,0.519,66.667,866.000
-3825.635,-3832.609,-3828.943,-3842.891,-3831.357,-3833.056,-3835.470,-3832.430,0.001,1.020,0.084,-0.549,1.770,0.427,66.667,867.000
-3825.635,-3832.609,-3828.765,-3842.712,-3830.910,-3832.967,-3835.113,-3832.073,0.000,1.021,0.087,-0.549,1.709,0.397,66.667,868.000
-3825.725,-3832.609,-3828.943,-3842.980,-3831.268,-3833.235,-3835.202,-3832.520,0.003,1.021,0.085,-0.519,1.770,0.458,66.667,869.000
-3825.814,-3832.341,-3829.122,-3843.249,-3831.447,-3833.503,-3835.470,-3832.788,0.002,1.022,0.085,-0.488,1.831,0.519,66.667,870.000
-3825.904,-3832.609,-3829.212,-3842.980,-3831.178,-3833.235,-3835.470,-3832.967,0.002,1.022,0.085,-0.610,1.801,0.488,66.667,871.000
-3825.546,-3832.877,-3829.212,-3843.159,-3831.178,-3833.235,-3835.291,-3832.520,0.002,1.020,0.089,-0.641,1.770,0.549,66.667,872.000
-3825.010,-3832.877,-3829.033,-3843.249,-3831.447,-3833.235,-3835.381,-3831.894,0.003,1.020,0.087,-0.671,1.770,0.610,66.667,873.000
-3825.188,-3832.788,-3829.212,-3842.891,-3831.447,-3833.414,-3835.023,-3832.520,0.003,1.018,0.090,-0.671,1.740,0.519,66.667,874.000
-3825.904,-3832.698,-3829.212,-3843.070,-3831.626,-3833.414,-3835.202,-3832.520,0.001,1.019,0.090,-0.824,1.617,0.580,66.667,875.000
-3825.546,-3832.609,-3829.212,-3842.980,-3831.536,-3833.324,-3835.202,-3832.430,0.002,1.019,0.086,-0.763,1.678,0.610,66.667,876.000
-3825.814,-3832.788,-3828.854,-3843.159,-3831.626,-3833.414,-3835.649,-3832.430,-0.000,1.019,0.089,-0.732,1.709,0.702,66.667,877.000
-3825.904,-3832.788,-3828.765,-3842.891,-3831.178,-3833.324,-3834.934,-3832.430,0.003,1.021,0.087,-0.732,1.709,0.732,66.667,878.000
-3825.635,-3832.788,-3829.033,-3842.891,-3831.178,-3833.414,-3834.934,-3832.251,0.002,1.018,0.089,-0.671,1.678,0.732,66.667,879.000
-3825.546,-3832.251,-3829.033,-3842.802,-3831.178,-3833.324,-3835.381,-3832.073,0.002,1.020,0.092,-0.702,1.678,0.763,66.667,880.000
-3825.546,-3832.520,-3829.033,-3842.891,-3831.268,-3833.146,-3835.828,-3832.162,0.004,1.021,0.088,-0.671,1.831,0.641,66.667,881.000
-3825.457,-3832.609,-3829.212,-3842.980,-3831.626,-3833.235,-3835.738,-3832.609,0.003,1.019,0.089,-0.549,1.648,0.671,66.667,882.000
-3825.814,-3832.609,-3829.033,-3842.980,-3831.447,-3833.235,-3835.023,-3832.251,0.004,1.019,0.087,-0.580,1.709,0.610,66.667,883.000
-3825.635,-3832.341,-3829.122,-3842.802,-3831.000,-3833.056,-3834.755,-3832.162,0.002,1.020,0.085,-0.580,1.740,0.488,66.667,884.000
-3825.814,-3832.430,-3829.390,-3842.980,-3831.178,-3833.056,-3835.291,-3832.251,0.002,1.019,0.089,-0.488,1.678,0.366,66.667,885.000
-3825.635,-3832.788,-3828.765,-3842.891,-3831.178,-3832.967,-3835.023,-3832.520,0.001,1.018,0.085,-0.458,1.801,0.336,66.667,886.000
-3825.188,-3832.520,-3829.033,-3842.891,-3831.357,-3832.788,-3835.113,-3832.609,-0.001,1.019,0.087,-0.519,1.770,0.305,66.667,887.000
-3825.457,-3832.788,-3829.033,-3842.802,-3831.536,-3833.056,-3835.202,-3832.788,0.001,1.020,0.089,-0.549,1.740,0.305,66.667,888.000
-3825.367,-3832.877,-3828.765,-3842.712,-3830.821,-3833.056,-3835.291,-3832.520,0.002,1.020,0.091,-0.580,1.801,0.214,66.667,889.000
-3825.278,-3832.788,-3828.943,-3842.623,-3830.821,-3832.967,-3835.649,-3832.341,0.002,1.019,0.090,-0.580,1.862,0.305,66.667,890.000
-3825.635,-3832.788,-3829.212,-3842.533,-3831.268,-3833.056,-3835.470,-3832.341,0.001,1.020,0.093,-0.610,1.831,0.366,66.667,891.000
-2579.660,-2587.349,-2583.951,-2597.541,-2586.186,-2587.885,-2590.031,-2586.902,0.003,1.019,0.090,-0.641,1.831,0.427,66.667,892.000
2411.932,2400.399,2405.763,2391.726,2402.544,2402.634,2399.594,2402.723,0.002,1.020,0.089,-0.549,1.801,0.458,66.667,893.000
3661.573,3649.414,3655.315,3641.457,3652.186,3652.186,3649.057,3652.543,0.005,1.023,0.089,-0.519,1.801,0.549,66.667,894.000
3661.842,3649.235,3655.405,3641.368,3651.739,3652.096,3648.878,3652.365,0.003,1.021,0.090,-0.519,1.740,0.610,66.667,895.000
3662.021,3649.682,3655.494,3641.010,3651.470,3652.365,3648.788,3652.365,0.001,1.023,0.089,-0.488,1.740,0.671,66.667,896.000
3661.931,3649.861,3655.583,3640.742,3651.649,3652.096,3648.878,3652.633,0.001,1.023,0.086,-0.458,1.740,0.671,66.667,897.000
3661.931,3649.682,3655.762,3641.010,3651.739,3652.365,3648.967,3652.990,0.001,1.023,0.086,-0.397,1.801,0.610,66.667,898.000
3661.663,3649.235,3655.852,3640.920,3651.917,3652.186,3648.699,3653.169,0.002,1.022,0.085,-0.580,1.740,0.671,66.667,899.000
3661.126,3649.414,3655.494,3640.920,3651.917,3652.543,3648.878,3652.901,0.002,1.021,0.086,-0.641,1.648,0.732,66.667,900.000
3661.037,3649.682,3655.315,3641.189,3651.560,3652.186,3649.235,3652.633,0.002,1.021,0.085,-0.732,1.709,0.641,66.667,901.000
3661.305,3649.593,3655.494,3640.831,3651.739,3651.739,3648.699,3652.454,0.001,1.017,0.087,-0.885,1.678,0.580,66.667,902.000
3661.305,3649.682,3655.226,3640.652,3651.470,3651.649,3648.788,3652.454,0.001,1.019,0.089,-0.916,1.709,0.641,66.667,903.000
3661.752,3649.861,3655.047,3641.010,3651.649,3652.096,3648.610,3652.633,0.003,1.019,0.084,-0.885,1.740,0.580,66.667,904.000
3661.931,3649.861,3655.405,3640.920,3651.739,3652.365,3648.610,3652.633,0.002,1.020,0.087,-0.854,1.740,0.580,66.667,905.000
3661.305,3649.951,3655.226,3641.457,3651.739,3652.096,3649.057,3652.275,0.001,1.020,0.090,-0.793,1.740,0.641,66.667,906.000
3661.305,3649.504,3654.689,3641.189,3651.828,3651.917,3648.520,3652.365,0.002,1.021,0.089,-0.732,1.709,0.610,66.667,907.000
3661.484,3649.682,3655.047,3640.473,3651.828,3652.096,3648.610,3652.543,0.003,1.021,0.089,-0.610,1.801,0.580,66.667,908.000
3662.021,3649.682,3655.405,3640.742,3651.649,3652.186,3648.878,3652.812,0.000,1.021,0.088,-0.519,1.801,0.549,66.667,909.000
3661.931,3649.951,3655.226,3640.920,3651.470,3652.365,3649.057,3652.633,0.001,1.020,0.087,-0.397,1.740,0.458,66.667,910.000
3661.842,3649.772,3655.494,3640.920,3651.560,3652.633,3648.878,3652.633,0.001,1.019,0.087,-0.366,1.740,0.519,66.667,911.000
3661.752,3649.593,3655.226,3640.920,3652.096,3652.722,3648.610,3652.722,0.001,1.020,0.084,-0.366,1.892,0.366,66.667,912.000
3661.931,3649.593,3655.226,3641.189,3651.739,3652.275,3648.520,3652.365,0.001,1.020,0.085,-0.427,1.862,0.275,66.667,913.000
3661.842,3649.772,3655.226,3640.920,3651.470,3652.365,3648.788,3652.543,0.002,1.018,0.088,-0.488,1.801,0.366,66.667,914.000
3661.752,3649.861,3655.226,3640.831,3651.560,3652.543,3649.057,3652.990,0.003,1.019,0.086,-0.549,1.862,0.336,66.667,915.000
3661.573,3649.951,3655.583,3641.189,3651.739,3652.543,3648.878,3652.454,0.004,1.020,0.087,-0.610,1.770,0.427,66.667,916.000
3662.110,3649.861,3655.494,3640.563,3652.096,3652.633,3648.610,3652.543,0.004,1.020,0.086,-0.702,1.801,0.336,66.667,917.000
3662.021,3649.861,3655.315,3640.563,3651.649,3652.543,3648.520,3652.722,0.003,1.021,0.087,-0.793,1.770,0.427,66.667,918.000
3661.931,3649.504,3655.226,3640.920,3651.739,3652.186,3648.967,3652.633,0.001,1.023,0.087,-0.793,1.801,0.427,66.667,919.000
3661.484,3649.772,3655.583,3641.368,3651.739,3652.007,3649.057,3652.543,0.000,1.022,0.090,-0.671,1.740,0.580,66.667,920.000
3661.573,3649.682,3655.583,3641.010,3651.917,3652.365,3649.057,3652.722,-0.001,1.021,0.090,-0.580,1.740,0.671,66.667,921.000
3661.395,3650.129,3655.405,3641.368,3651.828,3652.633,3648.967,3652.633,-0.002,1.020,0.089,-0.671,1.709,0.671,66.667,922.000
3661.573,3649.861,3654.958,3641.457,3651.381,3652.633,3648.967,3652.633,-0.000,1.020,0.087,-0.610,1.709,0.702,66.667,923.000
3661.573,3649.504,3655.047,3641.010,3651.560,3652.275,3648.699,3652.812,0.000,1.019,0.088,-0.458,1.770,0.763,66.667,924.000
3661.305,3649.682,3655.226,3640.920,3651.649,3652.543,3648.788,3652.633,0.002,1.019,0.085,-0.519,1.770,0.702,66.667,925.000
3661.752,3649.682,3655.315,3641.189,3651.381,3652.543,3649.057,3652.990,0.004,1.020,0.087,-0.580,1.831,0.641,66.667,926.000
3661.752,3649.504,3655.047,3641.010,3651.470,3652.007,3649.057,3652.633,0.002,1.019,0.089,-0.641,1.801,0.671,66.667,927.000
3661.484,3649.682,3655.405,3640.920,3651.470,3652.096,3648.967,3652.633,0.004,1.022,0.088,-0.793,1.770,0.580,66.667,928.000
3661.484,3649.682,3655.226,3640.920,3651.649,3652.007,3648.967,3652.812,0.005,1.021,0.088,-0.793,1.770,0.610,66.667,929.000
