collect.....= UnicornPy_2020.05.30.0
device......= UN-2019.05.51
samplerate..= 250.000
channels....= 16
date........= 2020-06-24T11:05:15.097741
filename....= Raw\example626
FZ, C3, CZ, C4, PZ, O1, OZ, O2, AccelX, AccelY, AccelZ, GyroX, GyroY, GyroZ, Battery, Sample
-1081.735,-828.534,-271.887,-217.617,-157.356,-8.225,-1320.452,39.697,0.555,0.770,0.432,-0.549,1.740,0.580,73.333,15.000
-765.056,-681.013,-173.539,-166.655,-25.839,-8.494,-1058.489,35.048,0.555,0.769,0.433,-0.458,1.770,0.488,73.333,16.000
-482.440,-524.193,-174.969,-254.363,-59.187,-25.034,-734.389,-33.617,0.554,0.768,0.433,-0.488,1.831,0.366,73.333,17.000
-266.522,-275.284,-255.168,-285.655,-113.457,-122.666,-467.062,-160.754,0.553,0.771,0.434,-0.366,1.770,0.458,73.333,18.000
-210.285,-209.749,-179.350,-221.729,-131.607,-197.947,-266.701,-183.016,0.554,0.771,0.435,-0.397,1.709,0.427,73.333,19.000
-202.149,-198.484,-165.582,-210.643,-121.057,-186.145,-242.204,-177.562,0.553,0.770,0.433,-0.458,1.740,0.549,73.333,20.000
-196.338,-193.030,-159.949,-204.653,-115.246,-178.993,-235.230,-172.466,0.552,0.771,0.434,-0.519,1.709,0.488,73.333,21.000
-190.973,-187.933,-155.836,-199.646,-111.401,-174.433,-229.061,-168.711,0.552,0.771,0.434,-0.580,1.648,0.580,73.333,22.000
-186.145,-183.821,-152.081,-195.533,-108.093,-170.231,-222.802,-165.045,0.556,0.771,0.433,-0.549,1.648,0.610,73.333,23.000
-181.139,-179.619,-149.131,-191.242,-105.232,-166.833,-217.170,-161.737,0.555,0.771,0.433,-0.641,1.678,0.610,73.333,24.000
-176.668,-176.042,-146.270,-187.665,-102.282,-163.257,-212.431,-158.787,0.554,0.770,0.437,-0.763,1.678,0.641,73.333,25.000
-172.645,-172.377,-143.677,-184.536,-99.957,-160.128,-207.514,-156.015,0.554,0.769,0.438,-0.641,1.740,0.641,73.333,26.000
-168.622,-168.800,-141.531,-181.049,-97.811,-157.267,-202.864,-153.422,0.554,0.769,0.434,-0.610,1.770,0.519,73.333,27.000
-165.314,-166.029,-139.385,-178.009,-96.202,-154.585,-198.841,-150.830,0.556,0.769,0.434,-0.610,1.801,0.488,73.333,28.000
-162.095,-163.257,-137.419,-174.969,-94.235,-152.350,-194.818,-148.326,0.556,0.771,0.435,-0.488,1.801,0.427,73.333,29.000
-158.608,-160.933,-135.452,-172.645,-92.357,-149.846,-190.973,-146.091,0.554,0.771,0.428,-0.427,1.770,0.366,73.333,30.000
-155.658,-158.608,-133.753,-170.320,-91.106,-147.432,-187.308,-143.498,0.552,0.770,0.431,-0.458,1.801,0.488,73.333,31.000
-153.244,-156.194,-131.875,-167.817,-89.496,-145.644,-183.910,-141.799,0.552,0.770,0.433,-0.580,1.740,0.488,73.333,32.000
-150.740,-153.869,-130.177,-165.492,-88.066,-143.677,-180.602,-140.011,0.552,0.771,0.433,-0.580,1.709,0.610,73.333,33.000
-148.326,-151.992,-128.657,-163.257,-86.814,-141.799,-177.562,-138.581,0.552,0.772,0.433,-0.549,1.709,0.641,73.333,34.000
-145.644,-150.204,-127.673,-161.290,-85.384,-140.190,-174.701,-136.971,0.554,0.773,0.430,-0.488,1.648,0.549,73.333,35.000
-143.319,-148.416,-126.421,-159.502,-84.400,-138.670,-171.661,-135.541,0.554,0.771,0.433,-0.580,1.740,0.641,73.333,36.000
-141.174,-146.896,-125.170,-157.535,-83.506,-136.882,-169.158,-134.200,0.557,0.771,0.437,-0.641,1.678,0.671,73.333,37.000
-139.385,-145.555,-123.739,-156.105,-82.612,-135.630,-166.655,-132.412,0.557,0.774,0.436,-0.610,1.740,0.671,73.333,38.000
-137.597,-143.856,-122.488,-154.316,-81.986,-134.468,-164.688,-131.249,0.557,0.773,0.437,-0.580,1.770,0.732,73.333,39.000
-136.167,-142.247,-121.236,-152.886,-81.092,-133.127,-162.542,-130.087,0.556,0.771,0.437,-0.580,1.740,0.610,73.333,40.000
-134.200,-141.263,-120.342,-151.455,-80.466,-131.786,-160.217,-128.835,0.555,0.771,0.435,-0.488,1.740,0.549,73.333,41.000
-132.322,-140.101,-119.537,-150.204,-79.930,-130.534,-158.072,-128.120,0.556,0.771,0.434,-0.519,1.740,0.488,73.333,42.000
-130.892,-138.760,-118.464,-149.041,-79.125,-129.372,-156.283,-127.047,0.553,0.769,0.433,-0.427,1.892,0.458,73.333,43.000
-129.551,-137.597,-117.660,-147.790,-78.499,-128.299,-155.032,-126.064,0.552,0.770,0.432,-0.488,1.831,0.427,73.333,44.000
-128.388,-136.435,-116.855,-146.449,-77.873,-127.137,-153.065,-125.259,0.553,0.770,0.431,-0.519,1.862,0.458,73.333,45.000
-127.047,-135.183,-116.318,-145.376,-77.426,-126.243,-151.724,-124.186,0.555,0.770,0.434,-0.549,1.770,0.458,73.333,46.000
-125.796,-134.379,-115.514,-144.482,-77.069,-125.527,-150.114,-123.292,0.553,0.771,0.434,-0.610,1.648,0.580,73.333,47.000
-124.812,-133.753,-114.620,-143.498,-76.532,-124.723,-148.773,-122.666,0.556,0.772,0.434,-0.610,1.617,0.610,73.333,48.000
-123.471,-132.948,-113.994,-142.425,-76.264,-123.918,-147.522,-121.862,0.554,0.771,0.434,-0.610,1.617,0.641,73.333,49.000
-122.666,-131.965,-113.279,-141.352,-75.728,-123.113,-146.359,-121.146,0.555,0.772,0.433,-0.610,1.648,0.671,73.333,50.000
-121.772,-131.249,-112.653,-140.548,-75.102,-122.577,-145.018,-120.699,0.554,0.771,0.435,-0.610,1.587,0.702,73.333,51.000
-120.878,-130.624,-112.116,-139.833,-74.744,-122.041,-143.945,-119.984,0.555,0.771,0.434,-0.549,1.709,0.610,73.333,52.000
-119.895,-129.640,-111.580,-139.117,-74.476,-121.504,-142.962,-119.358,0.555,0.771,0.437,-0.549,1.770,0.580,73.333,53.000
-119.001,-129.014,-111.043,-138.134,-74.118,-120.789,-141.710,-119.001,0.556,0.771,0.435,-0.549,1.648,0.580,73.333,54.000
-118.285,-128.478,-110.596,-137.597,-73.940,-119.984,-140.727,-118.375,0.555,0.771,0.435,-0.610,1.678,0.549,73.333,55.000
-117.749,-127.852,-110.060,-137.061,-73.761,-119.269,-140.011,-117.838,0.555,0.771,0.434,-0.488,1.770,0.519,73.333,56.000
-117.213,-127.137,-109.524,-136.524,-73.671,-118.822,-139.207,-117.123,0.557,0.772,0.433,-0.458,1.831,0.427,73.333,57.000
-116.408,-126.600,-108.987,-135.720,-73.224,-118.375,-138.134,-116.587,0.554,0.771,0.434,-0.488,1.801,0.397,73.333,58.000
-115.693,-126.421,-108.719,-134.915,-72.956,-117.928,-137.419,-116.318,0.554,0.769,0.436,-0.519,1.740,0.488,73.333,59.000
-114.888,-125.796,-108.361,-134.647,-73.046,-117.570,-136.703,-115.871,0.553,0.770,0.435,-0.519,1.770,0.549,73.333,60.000
-114.530,-125.170,-108.093,-134.289,-72.956,-117.123,-135.988,-115.514,0.552,0.768,0.434,-0.610,1.709,0.549,73.333,61.000
-114.083,-124.812,-107.735,-133.842,-72.956,-116.766,-135.183,-115.246,0.552,0.770,0.436,-0.580,1.617,0.610,73.333,62.000
-113.636,-124.455,-107.467,-133.306,-72.420,-116.229,-134.736,-114.799,0.553,0.770,0.434,-0.549,1.556,0.610,73.333,63.000
-113.010,-123.918,-106.752,-132.591,-72.151,-115.961,-134.110,-114.441,0.555,0.771,0.436,-0.610,1.617,0.519,73.333,64.000
-112.742,-123.560,-106.394,-132.054,-72.151,-115.693,-133.485,-114.173,0.556,0.773,0.438,-0.610,1.648,0.702,73.333,65.000
-112.385,-123.292,-106.126,-131.696,-71.794,-115.067,-132.680,-113.636,0.555,0.771,0.436,-0.610,1.678,0.702,73.333,66.000
-111.669,-122.935,-105.768,-131.607,-71.794,-114.620,-132.144,-113.457,0.557,0.770,0.434,-0.549,1.678,0.671,73.333,67.000
-111.491,-122.666,-105.590,-131.071,-71.704,-114.530,-131.786,-113.010,0.557,0.770,0.436,-0.549,1.801,0.610,73.333,68.000
-111.222,-122.309,-105.500,-130.892,-71.704,-114.262,-131.339,-112.921,0.556,0.768,0.438,-0.549,1.831,0.549,73.333,69.000
-110.596,-121.772,-105.232,-130.802,-71.436,-113.815,-130.624,-112.474,0.555,0.771,0.435,-0.488,1.709,0.397,73.333,70.000
-110.149,-121.683,-104.964,-130.355,-71.436,-113.636,-130.177,-112.295,0.554,0.770,0.433,-0.458,1.740,0.458,73.333,71.000
-109.881,-121.504,-104.606,-129.819,-71.168,-113.368,-129.998,-111.938,0.552,0.771,0.434,-0.397,1.770,0.397,73.333,72.000
-109.702,-121.236,-104.606,-129.551,-71.079,-113.189,-129.551,-111.759,0.552,0.770,0.434,-0.458,1.801,0.397,73.333,73.000
-109.434,-120.610,-104.338,-129.193,-70.989,-112.832,-128.835,-111.491,0.553,0.770,0.434,-0.458,1.709,0.549,73.333,74.000
-109.077,-120.521,-104.070,-128.925,-70.989,-112.832,-128.478,-111.401,0.553,0.771,0.434,-0.610,1.770,0.580,73.333,75.000
-108.987,-120.521,-103.980,-128.567,-70.989,-112.563,-128.388,-111.222,0.554,0.770,0.437,-0.671,1.740,0.671,73.333,76.000
-108.719,-120.163,-103.712,-128.388,-70.810,-112.295,-127.941,-111.043,0.554,0.770,0.436,-0.641,1.740,0.641,73.333,77.000
-108.182,-119.805,-103.623,-128.120,-70.810,-111.938,-127.405,-110.775,0.554,0.770,0.438,-0.702,1.770,0.641,73.333,78.000
-108.093,-119.627,-103.176,-127.941,-70.721,-111.848,-127.226,-110.686,0.555,0.769,0.435,-0.641,1.709,0.580,73.333,79.000
-107.914,-119.448,-103.176,-127.763,-70.632,-111.759,-126.958,-110.507,0.555,0.770,0.434,-0.580,1.740,0.580,73.333,80.000
-107.467,-119.448,-103.176,-127.494,-70.632,-111.759,-126.600,-110.149,0.556,0.768,0.435,-0.580,1.801,0.549,73.333,81.000
-107.378,-119.090,-102.997,-127.226,-70.632,-111.491,-126.421,-109.971,0.554,0.770,0.435,-0.580,1.801,0.366,73.333,82.000
-107.378,-118.911,-102.729,-127.047,-70.632,-111.312,-126.243,-109.792,0.554,0.771,0.433,-0.519,1.740,0.458,73.333,83.000
-107.199,-118.732,-102.550,-127.047,-70.632,-111.043,-125.974,-109.702,0.555,0.771,0.433,-0.519,1.678,0.488,73.333,84.000
-106.931,-118.643,-102.550,-126.869,-70.542,-111.043,-125.706,-109.524,0.555,0.770,0.436,-0.549,1.740,0.519,73.333,85.000
-106.752,-118.643,-102.460,-126.779,-70.363,-110.865,-125.527,-109.345,0.553,0.770,0.431,-0.488,1.709,0.488,73.333,86.000
-106.663,-118.375,-102.013,-126.243,-70.184,-110.596,-125.349,-109.255,0.552,0.769,0.435,-0.549,1.709,0.488,73.333,87.000
-106.305,-118.196,-101.924,-126.243,-69.916,-110.596,-125.259,-109.166,0.553,0.770,0.435,-0.580,1.678,0.519,73.333,88.000
-106.305,-118.196,-102.013,-126.243,-69.827,-110.328,-124.902,-108.808,0.553,0.770,0.436,-0.641,1.678,0.549,73.333,89.000
-106.305,-117.928,-101.835,-125.885,-70.095,-110.328,-124.633,-108.808,0.554,0.771,0.433,-0.519,1.648,0.641,73.333,90.000
-105.858,-117.749,-101.566,-125.796,-70.274,-110.149,-124.365,-108.808,0.554,0.771,0.432,-0.610,1.617,0.763,73.333,91.000
-105.768,-117.660,-101.566,-125.706,-70.095,-110.060,-124.276,-108.629,0.554,0.772,0.436,-0.610,1.770,0.702,73.333,92.000
-105.679,-117.660,-101.656,-125.706,-70.184,-110.060,-124.007,-108.629,0.555,0.772,0.435,-0.610,1.740,0.580,73.333,93.000
-105.679,-117.570,-101.477,-125.438,-69.916,-110.060,-124.097,-108.719,0.556,0.771,0.436,-0.580,1.648,0.549,73.333,94.000
-105.500,-117.481,-101.209,-125.259,-70.095,-109.702,-123.918,-108.361,0.555,0.770,0.436,-0.610,1.740,0.519,73.333,95.000
-105.411,-117.302,-101.477,-125.438,-69.916,-109.613,-123.829,-108.272,0.555,0.769,0.436,-0.549,1.801,0.488,73.333,96.000
-105.321,-117.034,-101.388,-125.349,-69.916,-109.613,-123.382,-108.093,0.553,0.769,0.432,-0.336,1.801,0.336,73.333,97.000
-105.232,-117.213,-100.940,-125.080,-70.095,-109.613,-123.113,-108.093,0.552,0.770,0.434,-0.427,1.770,0.397,73.333,98.000
-105.143,-117.034,-101.119,-125.080,-70.095,-109.434,-123.024,-108.004,0.552,0.771,0.432,-0.427,1.709,0.427,73.333,99.000
-105.232,-116.944,-100.940,-124.902,-69.916,-109.255,-122.756,-107.914,0.551,0.771,0.433,-0.519,1.709,0.458,73.333,100.000
-104.874,-116.944,-100.940,-124.812,-70.095,-109.255,-122.577,-107.825,0.554,0.774,0.433,-0.519,1.709,0.641,73.333,101.000
-104.696,-116.676,-100.940,-124.633,-69.827,-109.255,-122.756,-107.914,0.553,0.773,0.432,-0.519,1.709,0.580,73.333,102.000
-104.696,-116.766,-100.940,-124.812,-69.827,-109.166,-122.756,-108.093,0.552,0.774,0.435,-0.610,1.648,0.671,73.333,103.000
-104.696,-116.497,-100.851,-124.723,-69.916,-108.987,-122.398,-108.004,0.553,0.772,0.434,-0.610,1.740,0.671,73.333,104.000
-104.606,-116.140,-100.851,-124.455,-69.827,-108.898,-122.577,-107.825,0.553,0.771,0.432,-0.641,1.740,0.763,73.333,105.000
-104.696,-116.229,-100.851,-124.455,-70.095,-108.987,-122.488,-107.735,0.553,0.770,0.432,-0.641,1.709,0.702,73.333,106.000
-104.606,-116.318,-100.583,-124.186,-70.095,-108.987,-122.219,-107.646,0.554,0.770,0.434,-0.549,1.709,0.641,73.333,107.000
-104.338,-116.318,-100.493,-124.186,-69.827,-108.808,-122.219,-107.557,0.556,0.770,0.434,-0.488,1.740,0.610,73.333,108.000
-104.338,-116.318,-100.315,-124.097,-69.737,-108.808,-122.130,-107.467,0.553,0.769,0.437,-0.397,1.709,0.427,73.333,109.000
-104.338,-116.140,-100.493,-124.186,-69.648,-108.719,-121.951,-107.467,0.554,0.770,0.434,-0.397,1.678,0.397,73.333,110.000
-104.249,-116.140,-100.672,-124.007,-69.827,-108.540,-122.219,-107.467,0.552,0.770,0.432,-0.458,1.801,0.427,73.333,111.000
-104.159,-115.961,-100.315,-124.007,-69.827,-108.540,-122.130,-107.378,0.556,0.770,0.434,-0.488,1.740,0.427,73.333,112.000
-104.249,-115.961,-100.493,-123.829,-69.916,-108.540,-121.683,-107.378,0.555,0.770,0.435,-0.519,1.709,0.488,73.333,113.000
-104.070,-115.961,-100.315,-123.918,-69.827,-108.451,-121.683,-107.288,0.554,0.770,0.434,-0.610,1.770,0.427,73.333,114.000
-103.891,-115.693,-100.493,-124.007,-69.827,-108.272,-121.504,-107.199,0.552,0.770,0.437,-0.549,1.709,0.580,73.333,115.000
-103.802,-115.871,-100.404,-123.739,-69.648,-108.272,-121.415,-107.199,0.552,0.771,0.436,-0.549,1.770,0.671,73.333,116.000
-103.891,-115.871,-100.315,-123.471,-69.827,-108.182,-121.146,-107.199,0.555,0.774,0.435,-0.702,1.648,0.671,73.333,117.000
-103.802,-115.782,-100.404,-123.560,-69.916,-108.004,-121.057,-107.110,0.555,0.773,0.434,-0.702,1.617,0.732,73.333,118.000
-103.802,-115.782,-100.225,-123.560,-69.737,-108.004,-121.325,-107.110,0.554,0.772,0.436,-0.610,1.709,0.671,73.333,119.000
-103.712,-115.871,-100.136,-123.739,-69.827,-107.914,-121.325,-107.020,0.554,0.769,0.438,-0.610,1.770,0.580,73.333,120.000
-103.891,-115.693,-100.315,-123.560,-69.737,-107.914,-121.236,-107.020,0.556,0.769,0.438,-0.641,1.862,0.549,73.333,121.000
-103.802,-115.961,-99.957,-123.560,-69.737,-108.182,-121.146,-107.020,0.556,0.770,0.437,-0.610,1.770,0.427,73.333,122.000
-103.623,-115.871,-100.225,-123.382,-69.916,-107.825,-121.146,-107.110,0.554,0.771,0.437,-0.488,1.801,0.397,73.333,123.000
-103.623,-115.514,-100.225,-123.471,-69.916,-107.825,-120.968,-107.020,0.552,0.770,0.438,-0.275,1.770,0.275,73.333,124.000
-103.623,-115.603,-99.957,-123.382,-69.737,-107.914,-120.878,-106.931,0.552,0.769,0.437,-0.366,1.740,0.336,73.333,125.000
-103.712,-115.514,-99.957,-123.292,-69.648,-107.914,-120.610,-106.752,0.552,0.769,0.436,-0.397,1.678,0.488,73.333,126.000
-103.802,-115.514,-99.957,-123.471,-69.469,-108.093,-120.789,-106.841,0.549,0.771,0.434,-0.427,1.678,0.580,73.333,127.000
-103.444,-115.424,-99.778,-123.113,-69.648,-108.004,-120.789,-106.841,0.552,0.772,0.435,-0.549,1.678,0.702,73.333,128.000
-103.444,-115.424,-99.868,-123.024,-69.648,-108.004,-120.789,-106.752,0.553,0.772,0.434,-0.610,1.740,0.702,73.333,129.000
-103.533,-115.246,-99.957,-123.113,-69.559,-107.825,-120.789,-106.663,0.555,0.775,0.435,-0.732,1.740,0.702,73.333,130.000
-103.354,-115.335,-99.957,-123.203,-69.737,-108.093,-120.789,-106.484,0.555,0.773,0.433,-0.671,1.740,0.671,73.333,131.000
-103.444,-115.424,-99.778,-123.471,-69.916,-107.825,-120.699,-106.663,0.555,0.771,0.434,-0.610,1.770,0.641,73.333,132.000
-103.354,-115.246,-99.868,-123.024,-69.737,-107.914,-120.878,-106.752,0.556,0.769,0.434,-0.610,1.862,0.549,73.333,133.000
-103.176,-115.067,-99.778,-122.845,-69.827,-108.182,-120.878,-106.573,0.553,0.771,0.435,-0.488,1.740,0.549,73.333,134.000
-103.444,-115.067,-99.778,-123.024,-69.916,-107.914,-120.610,-106.663,0.554,0.769,0.436,-0.427,1.892,0.458,73.333,135.000
-103.354,-115.067,-99.778,-123.024,-69.916,-107.557,-120.610,-106.752,0.554,0.769,0.434,-0.519,1.770,0.397,73.333,136.000
-103.354,-115.335,-99.868,-123.113,-69.737,-107.646,-120.699,-106.752,0.552,0.769,0.431,-0.519,1.801,0.427,73.333,137.000
-103.354,-115.424,-99.778,-123.024,-69.559,-107.825,-120.610,-106.663,0.551,0.769,0.431,-0.519,1.770,0.427,73.333,138.000
-103.176,-115.335,-99.510,-123.024,-69.559,-107.914,-120.431,-106.573,0.552,0.771,0.433,-0.580,1.709,0.427,73.333,139.000
-103.354,-115.246,-99.510,-123.024,-69.648,-107.825,-120.431,-106.573,0.553,0.771,0.435,-0.641,1.740,0.549,73.333,140.000
-103.354,-115.246,-99.599,-122.935,-69.737,-107.646,-120.342,-106.752,0.554,0.771,0.435,-0.702,1.648,0.641,73.333,141.000
-103.354,-115.156,-99.689,-122.845,-69.737,-107.646,-120.431,-106.573,0.555,0.770,0.438,-0.702,1.678,0.641,73.333,142.000
-103.354,-115.067,-99.778,-122.845,-69.648,-107.646,-120.342,-106.305,0.555,0.772,0.433,-0.671,1.678,0.641,73.333,143.000
-103.176,-115.156,-99.599,-123.113,-69.648,-107.646,-120.252,-106.484,0.554,0.771,0.434,-0.641,1.740,0.549,73.333,144.000
-102.997,-115.067,-99.778,-123.024,-69.737,-107.825,-120.342,-106.305,0.554,0.771,0.434,-0.580,1.678,0.580,73.333,145.000
-103.354,-115.067,-99.868,-123.024,-69.648,-107.557,-120.163,-106.305,0.556,0.771,0.437,-0.549,1.709,0.488,73.333,146.000
-103.354,-115.067,-99.778,-122.935,-69.648,-107.467,-120.163,-106.394,0.554,0.769,0.438,-0.488,1.709,0.397,73.333,147.000
-103.354,-115.246,-99.778,-122.756,-69.559,-107.467,-119.895,-106.573,0.553,0.769,0.435,-0.427,1.770,0.336,73.333,148.000
-102.997,-115.246,-99.868,-122.845,-69.380,-107.557,-119.895,-106.484,0.551,0.769,0.435,-0.397,1.678,0.336,73.333,149.000
-102.997,-115.246,-99.599,-122.935,-69.559,-107.467,-120.252,-106.573,0.552,0.770,0.434,-0.488,1.678,0.366,73.333,150.000
-103.086,-114.977,-99.599,-123.024,-69.648,-107.378,-120.163,-106.305,0.552,0.770,0.433,-0.488,1.740,0.519,73.333,151.000
-103.176,-114.977,-99.599,-123.024,-69.559,-107.557,-120.163,-106.305,0.554,0.771,0.436,-0.519,1.770,0.488,73.333,152.000
-102.997,-115.067,-99.510,-122.845,-69.559,-107.467,-120.252,-106.126,0.554,0.770,0.436,-0.580,1.709,0.610,73.333,153.000
-102.907,-114.977,-99.599,-122.666,-69.648,-107.557,-120.074,-106.215,0.553,0.771,0.433,-0.610,1.801,0.641,73.333,154.000
-102.907,-115.067,-99.510,-122.666,-69.648,-107.378,-120.163,-106.484,0.554,0.772,0.433,-0.671,1.801,0.732,73.333,155.000
-102.997,-114.977,-99.510,-122.666,-69.559,-107.378,-119.984,-106.573,0.555,0.768,0.435,-0.732,1.678,0.671,73.333,156.000
-102.997,-114.977,-99.510,-122.845,-69.827,-107.467,-119.984,-106.394,0.554,0.768,0.437,-0.610,1.709,0.610,73.333,157.000
-102.818,-114.977,-99.510,-122.845,-69.648,-107.646,-119.984,-106.305,0.556,0.769,0.438,-0.549,1.740,0.580,73.333,158.000
-102.907,-114.977,-99.689,-123.024,-69.559,-107.467,-119.895,-106.305,0.556,0.770,0.433,-0.549,1.770,0.519,73.333,159.000
-103.265,-115.067,-99.242,-122.845,-69.737,-107.467,-120.074,-106.126,0.556,0.771,0.434,-0.519,1.801,0.519,73.333,160.000
-103.176,-114.888,-99.421,-122.845,-69.559,-107.467,-120.163,-106.305,0.554,0.770,0.436,-0.610,1.801,0.427,73.333,161.000
-102.907,-114.799,-99.599,-122.845,-69.648,-107.467,-120.252,-106.305,0.555,0.770,0.438,-0.488,1.740,0.427,73.333,162.000
-102.997,-114.977,-99.510,-122.756,-69.737,-107.557,-120.252,-106.305,0.554,0.769,0.435,-0.397,1.770,0.427,73.333,163.000
-102.997,-115.156,-99.510,-122.935,-69.916,-107.557,-119.984,-106.394,0.552,0.771,0.432,-0.458,1.709,0.488,73.333,164.000
-102.997,-114.977,-99.599,-122.666,-69.648,-107.557,-119.895,-106.305,0.553,0.771,0.433,-0.580,1.709,0.610,73.333,165.000
-102.997,-114.977,-99.510,-122.488,-69.559,-107.378,-119.984,-106.305,0.554,0.771,0.436,-0.549,1.678,0.671,73.333,166.000
-102.729,-115.067,-99.599,-122.577,-69.469,-107.288,-119.984,-106.305,0.554,0.772,0.437,-0.610,1.740,0.641,73.333,167.000
-102.997,-114.977,-99.331,-122.666,-69.648,-107.467,-119.805,-106.484,0.555,0.773,0.433,-0.610,1.678,0.671,73.333,168.000
-103.176,-114.977,-99.599,-122.666,-69.827,-107.467,-119.716,-106.484,0.556,0.771,0.436,-0.610,1.678,0.671,73.333,169.000
-102.997,-114.977,-99.689,-122.666,-69.648,-107.646,-119.716,-106.573,0.557,0.771,0.434,-0.641,1.709,0.610,73.333,170.000
-102.729,-114.977,-99.421,-122.666,-69.380,-107.467,-119.805,-106.484,0.556,0.772,0.435,-0.610,1.617,0.580,73.333,171.000
-102.818,-114.888,-99.331,-122.666,-69.380,-107.646,-119.984,-106.215,0.554,0.770,0.434,-0.519,1.740,0.488,73.333,172.000
-102.997,-114.799,-99.421,-122.577,-69.648,-107.288,-120.074,-106.215,0.555,0.771,0.431,-0.397,1.770,0.458,73.333,173.000
-103.176,-114.709,-99.421,-122.666,-69.827,-107.199,-120.074,-106.305,0.555,0.770,0.432,-0.397,1.892,0.397,73.333,174.000
-102.907,-114.799,-99.331,-122.577,-69.827,-107.557,-119.984,-106.215,0.553,0.772,0.433,-0.458,1.923,0.458,73.333,175.000
-102.997,-114.977,-99.421,-122.666,-69.737,-107.646,-119.895,-106.305,0.553,0.773,0.436,-0.549,1.740,0.488,73.333,176.000
-102.907,-114.977,-99.599,-122.577,-69.648,-107.467,-119.895,-106.126,0.555,0.772,0.436,-0.732,1.678,0.519,73.333,177.000
-102.997,-114.799,-99.599,-122.666,-69.559,-107.378,-119.984,-106.126,0.555,0.772,0.434,-0.610,1.678,0.458,73.333,178.000
-102.907,-114.799,-99.242,-122.577,-69.737,-107.288,-119.984,-106.126,0.553,0.771,0.435,-0.671,1.770,0.610,73.333,179.000
-102.818,-114.799,-99.242,-122.398,-69.648,-107.378,-119.805,-106.394,0.554,0.770,0.434,-0.641,1.740,0.641,73.333,180.000
-102.550,-114.709,-99.331,-122.577,-69.469,-107.199,-119.895,-106.484,0.555,0.770,0.433,-0.580,1.678,0.671,73.333,181.000
-102.729,-114.977,-99.689,-122.577,-69.559,-107.378,-119.716,-106.215,0.555,0.770,0.436,-0.610,1.801,0.610,73.333,182.000
-102.997,-114.977,-99.510,-122.488,-69.737,-107.378,-119.805,-106.126,0.555,0.771,0.436,-0.610,1.678,0.580,73.333,183.000
-102.729,-114.799,-99.421,-122.577,-69.827,-107.378,-120.163,-106.037,0.558,0.771,0.438,-0.488,1.678,0.488,73.333,184.000
-102.550,-114.977,-99.331,-122.666,-69.827,-107.378,-119.895,-105.947,0.555,0.772,0.437,-0.458,1.740,0.366,73.333,185.000
-102.550,-114.977,-99.421,-122.577,-69.827,-107.378,-119.716,-106.126,0.554,0.772,0.436,-0.488,1.678,0.275,73.333,186.000
-102.639,-114.977,-99.421,-122.666,-69.827,-107.378,-119.984,-106.126,0.554,0.770,0.432,-0.549,1.709,0.397,73.333,187.000
-102.729,-114.799,-99.421,-122.488,-69.737,-107.467,-119.895,-106.126,0.555,0.771,0.436,-0.488,1.770,0.519,73.333,188.000
-102.907,-114.709,-99.421,-122.398,-69.648,-107.378,-119.895,-106.037,0.554,0.769,0.434,-0.488,1.770,0.580,73.333,189.000
-102.818,-114.799,-99.599,-122.577,-69.648,-107.378,-119.895,-106.037,0.552,0.770,0.436,-0.580,1.831,0.641,73.333,190.000
-102.729,-114.888,-99.599,-122.577,-69.648,-107.378,-119.895,-106.037,0.552,0.770,0.438,-0.549,1.770,0.732,73.333,191.000
-102.729,-114.888,-99.510,-122.577,-69.469,-107.467,-119.716,-106.126,0.554,0.771,0.436,-0.549,1.831,0.641,73.333,192.000
-102.907,-114.799,-99.331,-122.398,-69.648,-107.288,-119.895,-106.305,0.555,0.771,0.435,-0.549,1.770,0.488,73.333,193.000
-102.907,-114.888,-99.331,-122.577,-69.648,-107.199,-119.895,-106.126,0.555,0.771,0.435,-0.549,1.770,0.580,73.333,194.000
-102.907,-114.888,-99.421,-122.666,-69.648,-107.467,-119.895,-106.305,0.555,0.770,0.433,-0.519,1.709,0.549,73.333,195.000
-102.907,-114.888,-99.421,-122.756,-69.737,-107.467,-119.805,-106.484,0.555,0.770,0.433,-0.519,1.678,0.610,73.333,196.000
-102.818,-114.799,-99.242,-122.488,-69.648,-107.378,-119.805,-106.126,0.555,0.771,0.436,-0.458,1.770,0.519,73.333,197.000
-102.729,-114.799,-99.331,-122.398,-69.648,-107.467,-119.537,-106.037,0.554,0.771,0.437,-0.458,1.801,0.427,73.333,198.000
-102.729,-114.799,-99.331,-122.577,-69.737,-107.378,-119.716,-106.037,0.553,0.772,0.437,-0.488,1.831,0.549,73.333,199.000
-102.907,-114.799,-99.331,-122.398,-69.737,-107.199,-119.805,-106.215,0.551,0.772,0.432,-0.458,1.801,0.458,73.333,200.000
-102.907,-114.709,-99.152,-122.219,-69.737,-107.110,-119.895,-106.215,0.553,0.771,0.435,-0.427,1.770,0.549,73.333,201.000
-102.907,-114.620,-99.242,-122.488,-69.648,-107.378,-119.805,-106.126,0.555,0.771,0.436,-0.458,1.709,0.671,73.333,202.000
-102.729,-114.977,-99.421,-122.488,-69.559,-107.288,-119.895,-106.215,0.555,0.769,0.436,-0.580,1.709,0.763,73.333,203.000
-102.997,-114.888,-99.421,-122.398,-69.648,-107.378,-119.805,-106.126,0.555,0.771,0.434,-0.610,1.801,0.702,73.333,204.000
-102.907,-114.799,-99.599,-122.309,-69.559,-107.199,-119.805,-106.126,0.554,0.769,0.432,-0.671,1.740,0.732,73.333,205.000
-102.729,-114.620,-99.510,-122.398,-69.648,-107.467,-119.984,-106.126,0.555,0.771,0.435,-0.671,1.678,0.580,73.333,206.000
-102.460,-114.888,-99.331,-122.488,-69.648,-107.378,-119.895,-106.037,0.556,0.771,0.437,-0.549,1.648,0.580,73.333,207.000
-102.639,-114.620,-99.242,-122.488,-69.559,-107.378,-119.805,-106.126,0.555,0.771,0.434,-0.519,1.740,0.519,73.333,208.000
-102.550,-114.620,-99.331,-122.577,-69.559,-107.288,-119.716,-106.126,0.556,0.770,0.433,-0.488,1.709,0.458,73.333,209.000
-102.729,-114.620,-99.421,-122.577,-69.559,-107.378,-119.895,-105.947,0.553,0.770,0.435,-0.641,1.770,0.458,73.333,210.000
-102.818,-114.620,-99.510,-122.577,-69.827,-107.467,-120.074,-106.037,0.553,0.769,0.434,-0.519,1.740,0.458,73.333,211.000
-102.729,-114.799,-99.599,-122.577,-69.827,-107.378,-119.895,-106.126,0.555,0.770,0.434,-0.488,1.770,0.580,73.333,212.000
-102.729,-114.799,-99.421,-122.398,-69.827,-107.467,-119.895,-106.126,0.553,0.771,0.435,-0.519,1.709,0.549,73.333,213.000
-102.729,-114.441,-99.242,-122.219,-69.827,-107.467,-119.805,-106.037,0.554,0.768,0.436,-0.549,1.648,0.458,73.333,214.000
-102.729,-114.262,-99.331,-122.577,-69.648,-107.646,-119.805,-106.126,0.554,0.770,0.436,-0.519,1.678,0.549,73.333,215.000
-102.550,-114.620,-99.510,-122.398,-69.737,-107.378,-119.716,-106.126,0.555,0.769,0.436,-0.488,1.648,0.580,73.333,216.000
-102.639,-114.530,-99.331,-122.488,-69.648,-107.467,-119.895,-106.215,0.554,0.768,0.434,-0.580,1.678,0.549,73.333,217.000
-102.639,-114.709,-99.331,-122.488,-69.559,-107.378,-119.895,-106.215,0.555,0.770,0.433,-0.580,1.678,0.549,73.333,218.000
-102.729,-114.620,-99.421,-122.488,-69.469,-107.288,-119.716,-106.037,0.555,0.769,0.435,-0.519,1.740,0.458,73.333,219.000
-102.907,-114.530,-99.421,-122.309,-69.469,-107.020,-119.805,-106.126,0.555,0.771,0.433,-0.549,1.648,0.519,73.333,220.000
-102.818,-114.530,-99.331,-122.309,-69.737,-107.020,-119.627,-105.947,0.552,0.772,0.436,-0.519,1.740,0.580,73.333,221.000
-102.550,-114.799,-99.242,-122.488,-69.827,-107.020,-119.537,-105.858,0.554,0.771,0.434,-0.610,1.709,0.488,73.333,222.000
-102.639,-114.888,-99.331,-122.398,-69.648,-107.378,-119.627,-106.037,0.554,0.769,0.433,-0.580,1.678,0.366,73.333,223.000
-102.729,-114.799,-99.152,-122.219,-69.648,-107.110,-119.537,-106.305,0.554,0.770,0.433,-0.519,1.678,0.366,73.333,224.000
-102.550,-114.530,-99.152,-122.219,-69.827,-107.020,-119.716,-106.037,0.554,0.769,0.435,-0.488,1.709,0.519,73.333,225.000
-102.550,-114.620,-99.331,-122.398,-69.737,-107.199,-119.537,-105.947,0.555,0.771,0.437,-0.580,1.709,0.519,73.333,226.000
-102.550,-114.620,-99.421,-122.219,-69.559,-107.378,-119.716,-106.126,0.556,0.770,0.436,-0.610,1.678,0.458,73.333,227.000
-102.729,-114.709,-99.331,-122.219,-69.469,-107.467,-119.895,-106.126,0.554,0.769,0.436,-0.610,1.709,0.580,73.333,228.000
-102.907,-114.620,-99.242,-122.398,-69.559,-107.378,-119.627,-106.126,0.555,0.771,0.435,-0.610,1.709,0.610,73.333,229.000
-102.907,-114.620,-99.331,-122.577,-69.380,-107.199,-119.716,-106.037,0.556,0.770,0.433,-0.580,1.770,0.580,73.333,230.000
-102.907,-114.799,-99.242,-122.398,-69.648,-107.199,-119.984,-105.947,0.555,0.772,0.434,-0.549,1.770,0.641,73.333,231.000
-102.729,-114.709,-99.242,-122.309,-69.648,-107.199,-119.805,-105.947,0.554,0.771,0.433,-0.488,1.740,0.549,73.333,232.000
-102.550,-114.530,-99.331,-122.398,-69.559,-107.199,-119.716,-105.858,0.555,0.770,0.434,-0.641,1.648,0.549,73.333,233.000
-102.729,-114.709,-99.063,-122.398,-69.559,-107.199,-119.984,-105.947,0.555,0.771,0.437,-0.519,1.801,0.549,73.333,234.000
-102.729,-114.530,-98.974,-122.577,-69.648,-107.199,-120.074,-105.947,0.553,0.771,0.436,-0.488,1.770,0.519,73.333,235.000
-102.550,-114.620,-99.331,-122.488,-69.648,-107.110,-119.895,-106.037,0.552,0.771,0.437,-0.458,1.678,0.488,73.333,236.000
-102.818,-114.620,-99.599,-122.488,-69.559,-107.199,-119.716,-106.215,0.554,0.771,0.433,-0.519,1.678,0.458,73.333,237.000
-102.729,-114.620,-99.331,-122.577,-69.469,-107.288,-119.716,-106.037,0.554,0.772,0.435,-0.580,1.770,0.610,73.333,238.000
-102.997,-114.709,-99.242,-122.577,-69.559,-107.199,-119.895,-105.858,0.553,0.771,0.438,-0.580,1.740,0.610,73.333,239.000
-102.818,-114.799,-99.331,-122.577,-69.737,-107.110,-119.805,-105.947,0.553,0.771,0.438,-0.610,1.770,0.488,73.333,240.000
-102.550,-114.977,-99.510,-122.488,-69.827,-107.110,-119.716,-105.947,0.553,0.770,0.435,-0.641,1.801,0.488,73.333,241.000
-102.639,-114.799,-99.331,-122.398,-69.827,-107.288,-119.895,-106.037,0.552,0.771,0.435,-0.641,1.709,0.458,73.333,242.000
-102.818,-114.709,-99.063,-122.577,-69.648,-107.288,-120.163,-106.126,0.553,0.771,0.437,-0.549,1.678,0.488,73.333,243.000
-102.907,-114.709,-99.063,-122.577,-69.648,-107.199,-119.984,-106.126,0.553,0.771,0.435,-0.549,1.740,0.580,73.333,244.000
-102.907,-114.620,-99.331,-122.398,-69.827,-107.199,-119.627,-106.037,0.553,0.771,0.436,-0.519,1.740,0.458,73.333,245.000
-102.818,-114.530,-99.421,-122.219,-69.559,-107.199,-119.537,-106.037,0.552,0.771,0.435,-0.549,1.740,0.519,73.333,246.000
-102.997,-114.620,-99.331,-122.130,-69.290,-107.110,-120.163,-105.947,0.552,0.770,0.434,-0.580,1.740,0.458,73.333,247.000
-102.907,-114.620,-99.063,-122.309,-69.290,-107.288,-120.163,-105.858,0.555,0.771,0.436,-0.549,1.770,0.519,73.333,248.000
-102.729,-114.799,-99.331,-122.577,-69.648,-107.199,-120.074,-105.947,0.552,0.771,0.438,-0.549,1.770,0.549,73.333,249.000
-102.639,-114.799,-99.331,-122.577,-69.737,-107.378,-120.163,-106.037,0.555,0.770,0.436,-0.488,1.709,0.580,73.333,250.000
-102.729,-114.799,-98.884,-122.398,-68.933,-107.378,-120.163,-105.768,0.554,0.769,0.437,-0.610,1.648,0.519,73.333,251.000
-102.818,-114.709,-99.152,-122.309,-68.575,-107.378,-120.252,-105.679,0.552,0.769,0.436,-0.549,1.648,0.519,73.333,252.000
-102.818,-114.530,-99.242,-122.488,-69.380,-107.199,-120.074,-105.858,0.554,0.770,0.436,-0.549,1.801,0.549,73.333,253.000
-102.729,-114.530,-98.974,-122.398,-69.469,-107.199,-120.074,-105.858,0.555,0.771,0.438,-0.610,1.709,0.519,73.333,254.000
-102.997,-114.620,-98.705,-122.219,-68.843,-107.110,-120.521,-105.590,0.555,0.770,0.435,-0.641,1.709,0.519,73.333,255.000
-103.176,-114.709,-98.705,-122.398,-68.039,-107.110,-120.610,-105.679,0.554,0.772,0.434,-0.580,1.709,0.549,73.333,256.000
-102.907,-114.530,-98.884,-122.488,-68.933,-107.020,-120.163,-105.858,0.553,0.771,0.432,-0.610,1.740,0.580,73.333,257.000
-102.907,-114.620,-99.331,-122.398,-69.469,-107.378,-120.163,-105.947,0.555,0.771,0.432,-0.610,1.709,0.488,73.333,258.000
-102.997,-114.530,-99.063,-122.309,-68.665,-107.199,-120.610,-105.679,0.554,0.771,0.434,-0.580,1.709,0.580,73.333,259.000
-103.176,-114.799,-98.884,-122.398,-67.681,-107.020,-120.878,-105.411,0.554,0.769,0.432,-0.519,1.709,0.519,73.333,260.000
-103.086,-114.799,-99.063,-122.577,-68.486,-107.199,-120.431,-105.411,0.554,0.771,0.434,-0.549,1.709,0.397,73.333,261.000
-103.086,-114.620,-99.242,-122.577,-68.933,-107.199,-120.252,-105.858,0.553,0.770,0.436,-0.427,1.740,0.458,73.333,262.000
-103.354,-114.709,-98.974,-122.398,-67.949,-107.199,-120.789,-105.858,0.553,0.769,0.434,-0.519,1.740,0.458,73.333,263.000
-103.444,-114.799,-98.705,-122.309,-66.966,-107.288,-121.236,-105.232,0.553,0.771,0.434,-0.549,1.709,0.610,73.333,264.000
-103.176,-114.620,-98.974,-122.398,-67.681,-107.378,-120.878,-105.232,0.553,0.772,0.434,-0.641,1.709,0.671,73.333,265.000
-102.907,-114.620,-98.884,-122.309,-68.486,-107.467,-120.610,-105.679,0.555,0.771,0.434,-0.641,1.709,0.641,73.333,266.000
-103.176,-114.620,-98.526,-122.398,-67.860,-107.288,-120.789,-105.590,0.555,0.769,0.434,-0.580,1.709,0.580,73.333,267.000
-103.354,-114.620,-98.526,-122.219,-66.698,-107.199,-121.415,-105.321,0.554,0.770,0.431,-0.488,1.770,0.519,73.333,268.000
-103.444,-114.620,-98.616,-122.309,-67.145,-107.199,-121.325,-104.964,0.553,0.771,0.432,-0.427,1.648,0.427,73.333,269.000
-103.354,-114.620,-98.705,-122.398,-67.860,-107.288,-120.878,-105.143,0.556,0.771,0.434,-0.458,1.770,0.519,73.333,270.000
-103.354,-114.709,-98.526,-122.398,-67.413,-107.378,-121.057,-105.411,0.554,0.771,0.435,-0.488,1.801,0.549,73.333,271.000
-103.623,-114.620,-98.079,-122.219,-66.072,-107.199,-121.504,-104.696,0.552,0.773,0.438,-0.549,1.740,0.580,73.333,272.000
-103.533,-114.799,-98.258,-122.309,-66.161,-107.288,-121.772,-104.785,0.554,0.770,0.435,-0.610,1.740,0.580,73.333,273.000
-102.997,-114.799,-98.616,-122.398,-67.145,-107.020,-121.325,-105.053,0.554,0.770,0.435,-0.549,1.709,0.580,73.333,274.000
-103.444,-114.620,-98.526,-122.219,-66.966,-107.378,-121.415,-105.053,0.554,0.769,0.436,-0.519,1.801,0.519,73.333,275.000
-103.802,-114.530,-97.990,-122.398,-65.625,-107.378,-121.772,-104.338,0.553,0.769,0.437,-0.488,1.770,0.488,73.333,276.000
-103.802,-114.620,-97.722,-122.398,-65.357,-107.467,-122.041,-104.427,0.554,0.768,0.436,-0.610,1.740,0.549,73.333,277.000
-103.623,-114.530,-98.437,-122.219,-66.340,-107.378,-121.504,-105.053,0.554,0.768,0.438,-0.580,1.770,0.549,73.333,278.000
-103.354,-114.620,-98.258,-122.130,-66.519,-107.199,-121.504,-104.874,0.553,0.769,0.436,-0.488,1.648,0.580,73.333,279.000
-103.802,-114.620,-97.632,-121.951,-65.178,-107.199,-122.130,-104.070,0.554,0.771,0.437,-0.488,1.740,0.549,73.333,280.000
-103.980,-114.620,-97.543,-122.041,-64.284,-107.378,-122.398,-103.802,0.553,0.771,0.438,-0.488,1.648,0.519,73.333,281.000
-103.533,-114.888,-98.079,-122.130,-65.357,-107.288,-121.593,-104.427,0.555,0.770,0.435,-0.519,1.709,0.519,73.333,282.000
-103.533,-114.977,-98.258,-122.130,-66.072,-107.199,-121.415,-104.606,0.554,0.771,0.433,-0.488,1.678,0.519,73.333,283.000
-104.070,-114.620,-97.543,-121.951,-64.820,-107.378,-122.130,-104.070,0.555,0.772,0.434,-0.458,1.709,0.580,73.333,284.000
-104.517,-114.620,-96.917,-121.772,-63.926,-107.378,-122.666,-103.444,0.555,0.770,0.436,-0.519,1.678,0.610,73.333,285.000
-103.891,-114.620,-97.543,-122.130,-64.552,-107.378,-122.219,-103.891,0.554,0.771,0.438,-0.580,1.678,0.519,73.333,286.000
-103.802,-114.620,-98.079,-122.398,-65.446,-107.020,-122.130,-104.249,0.553,0.771,0.434,-0.580,1.709,0.580,73.333,287.000
-104.159,-114.352,-97.543,-122.219,-64.641,-107.020,-121.951,-102.997,0.553,0.771,0.434,-0.580,1.709,0.549,73.333,288.000
-104.517,-114.530,-96.560,-121.772,-63.211,-107.020,-116.497,-96.470,0.553,0.768,0.434,-0.610,1.740,0.458,73.333,289.000
-104.606,-114.620,-96.738,-121.951,-63.211,-107.199,-121.057,-101.477,0.554,0.769,0.433,-0.519,1.648,0.519,73.333,290.000
-104.070,-114.620,-97.364,-122.130,-64.731,-107.020,-122.398,-103.980,0.553,0.771,0.434,-0.610,1.709,0.549,73.333,291.000
-83.059,-96.113,-61.512,-91.285,-35.048,-72.777,-77.695,-59.992,0.554,0.770,0.433,-0.427,1.770,0.610,73.333,292.000
250.518,207.335,412.703,338.227,378.102,387.222,476.718,482.440,0.555,0.772,0.435,-0.519,1.709,0.519,73.333,293.000
127.226,95.487,239.700,180.423,225.484,219.852,276.357,287.086,0.555,0.771,0.434,-0.580,1.648,0.519,73.333,294.000
-101.119,-111.848,-90.659,-116.944,-59.366,-101.030,-113.815,-95.129,0.556,0.771,0.435,-0.610,1.678,0.580,73.333,295.000
-46.939,-61.870,-15.736,-48.906,6.348,-28.521,-26.017,-9.477,0.557,0.770,0.430,-0.732,1.740,0.580,73.333,296.000
846.952,793.576,1052.588,966.132,1000.554,1018.346,1139.492,1145.035,0.556,0.769,0.432,-0.641,1.709,0.549,73.333,297.000
885.219,832.647,1094.163,1007.885,1040.250,1061.172,1180.709,1186.699,0.555,0.769,0.437,-0.580,1.801,0.610,73.333,298.000
-27.627,-43.094,8.315,-26.375,28.163,-4.649,-0.089,16.898,0.553,0.770,0.436,-0.610,1.740,0.610,73.333,299.000
-7.242,-24.587,34.332,-1.788,52.571,20.385,29.594,45.776,0.556,0.770,0.437,-0.519,1.801,0.610,73.333,300.000
1352.996,1291.663,1576.513,1483.620,1520.634,1539.946,1676.113,1683.802,0.555,0.770,0.434,-0.549,1.740,0.519,73.333,301.000
1956.493,1885.236,2219.350,2115.727,2149.433,2178.490,2341.837,2350.331,0.555,0.770,0.433,-0.458,1.648,0.549,73.333,302.000
287.980,258.833,387.937,333.041,380.337,367.999,417.441,430.584,0.553,0.770,0.436,-0.549,1.648,0.488,73.333,303.000
26.912,7.868,76.979,37.640,91.553,61.780,77.516,93.430,0.552,0.771,0.435,-0.519,1.709,0.580,73.333,304.000
1699.090,1635.790,1932.443,1837.224,1874.149,1895.517,2037.496,2045.006,0.554,0.771,0.433,-0.671,1.709,0.580,73.333,305.000
3019.184,2941.847,3303.320,3194.422,3230.990,3260.852,3437.609,3447.354,0.555,0.772,0.435,-0.610,1.709,0.549,73.333,306.000
1003.593,953.883,1192.242,1110.792,1149.237,1162.380,1271.457,1279.861,0.557,0.770,0.436,-0.488,1.678,0.610,73.333,307.000
86.367,62.406,163.257,113.904,165.224,144.929,180.870,194.281,0.556,0.770,0.436,-0.549,1.709,0.519,73.333,308.000
1899.094,1834.274,2142.370,2043.933,2080.322,2104.104,2253.145,2260.298,0.554,0.769,0.437,-0.488,1.740,0.549,73.333,309.000
3877.402,3800.065,4168.869,4060.329,4097.343,4126.132,4304.857,4314.602,0.555,0.769,0.437,-0.427,1.770,0.519,73.333,310.000
2043.128,1977.235,2298.564,2197.802,2231.241,2260.030,2416.134,2422.840,0.555,0.770,0.437,-0.519,1.740,0.458,73.333,311.000
292.808,254.810,450.879,369.161,411.362,421.465,531.346,536.799,0.555,0.770,0.433,-0.397,1.740,0.488,73.333,312.000
1977.504,1910.180,2236.516,2131.284,2165.705,2195.478,2358.914,2364.993,0.555,0.771,0.433,-0.488,1.709,0.397,73.333,313.000
4474.909,4398.645,4771.472,4663.558,4699.320,4728.377,4907.728,4916.400,0.554,0.770,0.434,-0.519,1.740,0.397,73.333,314.000
3174.305,3099.382,3460.140,3352.851,3386.290,3417.671,3591.926,3599.346,0.555,0.771,0.434,-0.488,1.770,0.458,73.333,315.000
871.718,805.378,1130.909,1027.644,1056.701,1094.610,1247.317,1248.121,0.553,0.771,0.435,-0.427,1.678,0.427,73.333,316.000
2094.716,2021.671,2371.699,2264.589,2295.435,2330.482,2497.852,2502.233,0.555,0.771,0.434,-0.580,1.770,0.549,73.333,317.000
4914.970,4838.795,5214.126,5106.569,5141.259,5171.121,5350.471,5358.875,0.555,0.771,0.434,-0.549,1.709,0.641,73.333,318.000
4290.462,4213.930,4585.505,4477.323,4512.549,4542.232,4721.046,4729.271,0.554,0.771,0.434,-0.549,1.770,0.549,73.333,319.000
1704.991,1634.807,1982.689,1877.189,1903.117,1940.757,2105.624,2107.591,0.554,0.771,0.436,-0.458,1.770,0.641,73.333,320.000
2276.927,2204.597,2559.007,2452.344,2480.686,2516.449,2686.143,2690.345,0.552,0.770,0.439,-0.519,1.740,0.641,73.333,321.000
5230.219,5154.223,5530.626,5423.785,5458.207,5488.337,5668.313,5676.271,0.553,0.770,0.436,-0.610,1.709,0.610,73.333,322.000
5334.557,5258.561,5635.501,5528.749,5563.170,5593.390,5773.545,5781.056,0.554,0.769,0.437,-0.580,1.709,0.580,73.333,323.000
2662.629,2587.438,2948.910,2840.817,2871.395,2905.101,3080.518,3087.760,0.552,0.769,0.436,-0.519,1.709,0.488,73.333,324.000
2536.565,2461.553,2822.847,2714.664,2744.168,2778.769,2953.649,2961.070,0.552,0.769,0.434,-0.580,1.709,0.488,73.333,325.000
5441.309,5365.224,5742.968,5635.948,5670.102,5700.500,5880.655,5889.059,0.552,0.769,0.434,-0.488,1.709,0.427,73.333,326.000
6271.721,6196.262,6578.029,6472.082,6505.610,6535.740,6716.610,6724.567,0.554,0.771,0.433,-0.488,1.770,0.427,73.333,327.000
3716.291,3638.238,4007.042,3897.966,3933.818,3963.501,4143.477,4153.669,0.554,0.771,0.432,-0.458,1.862,0.519,73.333,328.000
2904.922,2825.976,3191.293,3081.054,3116.459,3146.679,3327.191,3337.920,0.553,0.770,0.436,-0.580,1.862,0.580,73.333,329.000
5577.833,5501.480,5880.118,5772.830,5807.341,5837.382,6018.252,6026.835,0.555,0.772,0.435,-0.580,1.740,0.671,73.333,330.000
7085.593,7010.223,7396.192,7290.782,7323.058,7353.813,7536.293,7543.625,0.555,0.773,0.436,-0.580,1.678,0.641,73.333,331.000
4817.785,4740.626,5114.616,5006.702,5042.912,5072.147,5252.571,5261.690,0.556,0.771,0.437,-0.641,1.678,0.641,73.333,332.000
3390.402,3311.098,3677.220,3567.070,3605.515,3634.215,3815.175,3826.440,0.555,0.770,0.435,-0.641,1.678,0.702,73.333,333.000
5675.376,5599.023,5977.304,5870.462,5905.152,5935.283,6115.885,6124.646,0.555,0.768,0.435,-0.549,1.648,0.702,73.333,334.000
7761.331,7685.960,8074.255,7969.202,8001.299,8032.055,8215.429,8223.028,0.555,0.770,0.434,-0.580,1.678,0.549,73.333,335.000
5939.842,5864.025,6243.916,6137.432,6171.675,6201.626,6382.496,6390.900,0.553,0.768,0.436,-0.458,1.709,0.519,73.333,336.000
3992.201,3914.059,4283.488,4174.323,4212.857,4240.931,4420.460,4430.920,0.553,0.771,0.433,-0.519,1.770,0.458,73.333,337.000
5763.174,5686.910,6065.906,5959.422,5994.112,6023.706,6204.040,6212.802,0.552,0.771,0.431,-0.519,1.740,0.427,73.333,338.000
8291.782,8216.591,8607.031,8502.067,8534.254,8564.563,8748.474,8756.431,0.553,0.771,0.434,-0.458,1.709,0.427,73.333,339.000
7051.260,6976.159,7361.145,7255.555,7288.726,7318.945,7500.799,7508.935,0.553,0.771,0.434,-0.488,1.770,0.458,73.333,340.000
4708.797,4632.086,5005.808,4897.893,4934.997,4963.429,5142.243,5151.541,0.553,0.770,0.434,-0.580,1.770,0.397,73.333,341.000
5872.608,5796.434,6176.056,6069.214,6104.083,6133.408,6314.010,6322.504,0.553,0.771,0.434,-0.519,1.709,0.488,73.333,342.000
8686.156,8610.607,9002.210,8896.710,8929.165,8959.831,9144.367,9152.324,0.554,0.771,0.432,-0.549,1.740,0.641,73.333,343.000
8122.177,8046.896,8436.354,8330.854,8363.666,8393.885,8577.349,8585.663,0.555,0.770,0.435,-0.610,1.678,0.580,73.333,344.000
5539.746,5464.465,5842.746,5735.815,5771.131,5800.188,5979.628,5988.122,0.556,0.771,0.434,-0.671,1.770,0.641,73.333,345.000
6036.223,5961.121,6341.727,6235.153,6269.486,6299.080,6479.592,6487.460,0.555,0.773,0.435,-0.580,1.740,0.610,73.333,346.000
8959.384,8884.282,9276.601,9171.637,9203.645,9234.043,9418.847,9427.072,0.555,0.771,0.436,-0.549,1.678,0.580,73.333,347.000
9118.528,9043.158,9436.191,9331.317,9363.414,9393.812,9578.885,9586.753,0.556,0.771,0.438,-0.549,1.801,0.610,73.333,348.000
6464.572,6389.380,6772.489,6666.274,6700.070,6729.753,6910.802,6918.402,0.553,0.771,0.435,-0.488,1.862,0.549,73.333,349.000
6270.469,6194.652,6577.135,6470.831,6504.626,6534.667,6715.448,6722.779,0.556,0.772,0.436,-0.519,1.831,0.549,73.333,350.000
9126.754,9051.026,9443.970,9338.917,9371.282,9401.591,9586.843,9594.442,0.554,0.771,0.437,-0.519,1.770,0.610,73.333,351.000
10011.615,9936.066,10331.603,10227.086,10259.272,10289.671,10475.816,10484.131,0.555,0.771,0.436,-0.488,1.740,0.519,73.333,352.000
7473.708,7398.517,7785.828,7680.417,7712.783,7743.449,7925.750,7933.797,0.553,0.771,0.435,-0.580,1.770,0.488,73.333,353.000
6605.656,6530.554,6914.557,6808.699,6841.512,6872.178,7053.138,7060.917,0.554,0.772,0.436,-0.580,1.770,0.488,73.333,354.000
9230.020,9154.738,9547.683,9442.808,9475.173,9505.214,9690.644,9698.959,0.553,0.772,0.435,-0.610,1.678,0.580,73.333,355.000
10786.237,10710.956,11108.191,11003.854,11036.219,11066.081,11253.567,11261.882,0.552,0.771,0.433,-0.580,1.526,0.702,73.333,356.000
8541.049,8465.769,8856.834,8751.960,8784.146,8814.635,8998.812,9006.591,0.553,0.770,0.436,-0.580,1.648,0.702,73.333,357.000
7057.161,6982.506,7368.387,7262.797,7295.521,7325.919,7507.951,7515.551,0.553,0.771,0.434,-0.671,1.648,0.641,73.333,358.000
9292.336,9217.234,9610.268,9505.393,9537.490,9568.246,9753.229,9761.365,0.554,0.772,0.434,-0.671,1.709,0.610,73.333,359.000
11418.702,11343.332,11742.087,11637.481,11669.488,11700.691,11887.463,11896.403,0.555,0.771,0.434,-0.610,1.770,0.519,73.333,360.000
9627.970,9552.510,9947.063,9842.010,9874.196,9904.863,10090.293,10098.608,0.553,0.770,0.435,-0.458,1.709,0.549,73.333,361.000
7626.505,7551.135,7939.787,7834.019,7866.294,7896.872,8080.066,8087.398,0.553,0.773,0.434,-0.549,1.678,0.488,73.333,362.000
9344.907,9269.984,9663.018,9557.964,9590.240,9620.817,9806.247,9814.025,0.552,0.772,0.437,-0.488,1.740,0.427,73.333,363.000
11907.400,11832.209,12232.037,12127.878,12159.707,12190.017,12378.129,12387.248,0.553,0.771,0.435,-0.549,1.709,0.397,73.333,364.000
10710.420,10635.050,11032.464,10927.769,10959.865,10989.816,11176.856,11185.618,0.553,0.771,0.434,-0.458,1.770,0.519,73.333,365.000
8322.807,8247.615,8638.324,8533.092,8565.457,8595.677,8780.123,8788.170,0.554,0.772,0.433,-0.519,1.648,0.488,73.333,366.000
9428.056,9352.507,9746.076,9641.560,9673.656,9704.055,9889.753,9897.711,0.554,0.772,0.432,-0.488,1.740,0.519,73.333,367.000
12262.883,12187.513,12587.877,12483.808,12516.263,12546.303,12734.415,12743.356,0.553,0.770,0.433,-0.549,1.740,0.549,73.333,368.000
11749.865,11674.406,12074.056,11969.628,12002.083,12032.213,12219.968,12228.729,0.553,0.769,0.434,-0.610,1.709,0.610,73.333,369.000
9134.532,9058.983,9451.928,9346.964,9379.329,9409.549,9595.515,9603.025,0.553,0.769,0.437,-0.641,1.617,0.671,73.333,370.000
9565.832,9490.372,9884.479,9779.783,9812.059,9842.457,10028.603,10036.023,0.555,0.772,0.438,-0.641,1.709,0.610,73.333,371.000
12494.983,12420.061,12820.425,12717.070,12749.078,12779.298,12967.678,12976.708,0.554,0.772,0.434,-0.610,1.740,0.458,73.333,372.000
12711.527,12636.783,13037.952,12934.150,12966.516,12996.557,13184.579,13194.235,0.553,0.771,0.435,-0.519,1.648,0.458,73.333,373.000
10043.176,9967.716,10363.432,10258.825,10291.102,10321.053,10507.734,10515.781,0.555,0.770,0.436,-0.488,1.648,0.458,73.333,374.000
9782.733,9706.916,10102.095,9997.668,10029.496,10059.537,10245.861,10253.997,0.555,0.771,0.434,-0.519,1.801,0.488,73.333,375.000
12630.793,12555.333,12956.949,12852.969,12884.798,12914.928,13103.130,13112.875,0.554,0.771,0.433,-0.549,1.770,0.519,73.333,376.000
13573.143,13497.951,13901.355,13797.196,13829.562,13859.691,14048.430,14058.443,0.552,0.770,0.435,-0.549,1.709,0.488,73.333,377.000
11038.365,10962.637,11360.767,11256.339,11288.525,11318.566,11506.053,11514.814,0.553,0.770,0.433,-0.519,1.678,0.580,73.333,378.000
10103.168,10027.619,10423.603,10318.639,10350.825,10381.224,10567.815,10576.131,0.553,0.769,0.434,-0.580,1.709,0.580,73.333,379.000
12698.921,12623.998,13025.703,12921.187,12953.104,12983.414,13171.884,13181.093,0.553,0.770,0.437,-0.580,1.678,0.458,73.333,380.000
14306.637,14231.535,14636.102,14532.300,14564.129,14594.527,14783.802,14793.548,0.554,0.771,0.436,-0.610,1.709,0.458,73.333,381.000
12081.834,12006.553,12406.828,12302.312,12334.408,12364.807,12552.830,12561.949,0.556,0.772,0.436,-0.580,1.831,0.580,73.333,382.000
10536.702,10461.422,10858.567,10753.604,10785.880,10816.099,11003.317,11011.811,0.556,0.771,0.437,-0.580,1.709,0.580,73.333,383.000
12730.839,12655.916,13058.247,12953.820,12986.096,13016.227,13204.518,13213.547,0.556,0.770,0.436,-0.519,1.770,0.610,73.333,384.000
14898.512,14823.856,15232.357,15128.466,15160.563,15190.962,15379.163,15388.998,0.554,0.769,0.433,-0.549,1.709,0.610,73.333,385.000
13149.354,13074.430,13477.745,13373.407,13405.594,13435.992,13624.551,13633.402,0.556,0.770,0.437,-0.549,1.740,0.549,73.333,386.000
11097.463,11022.183,11420.312,11315.795,11347.981,11378.290,11566.224,11574.092,0.557,0.771,0.435,-0.519,1.862,0.488,73.333,387.000
12762.668,12687.477,13090.434,12986.007,13017.567,13047.429,13236.883,13245.645,0.555,0.768,0.435,-0.549,1.831,0.427,73.333,388.000
15346.083,15271.428,15685.024,15581.312,15605.005,15634.777,15830.669,15840.324,0.554,0.770,0.437,-0.610,1.770,0.519,73.333,389.000
14204.892,14130.147,14538.380,14434.757,14463.636,14493.855,14685.365,14694.753,0.554,0.771,0.437,-0.610,1.801,0.458,73.333,390.000
11784.108,11708.738,12108.388,12004.050,12036.058,12066.277,12254.836,12263.330,0.553,0.770,0.436,-0.580,1.831,0.458,73.333,391.000
12823.554,12748.184,13150.337,13046.445,13078.006,13108.673,13297.411,13306.530,0.554,0.771,0.436,-0.702,1.801,0.488,73.333,392.000
15669.825,15595.081,15997.502,15894.058,15930.894,15961.471,16150.924,16161.563,0.554,0.770,0.436,-0.671,1.740,0.458,73.333,393.000
15216.354,15141.698,15543.672,15440.050,15475.991,15506.657,15695.664,15706.125,0.552,0.769,0.435,-0.671,1.709,0.549,73.333,394.000
12581.261,12505.980,12907.239,12803.348,12835.267,12865.307,13053.777,13063.344,0.554,0.770,0.434,-0.610,1.648,0.580,73.333,395.000
12941.393,12865.933,13268.532,13164.642,13196.739,13226.958,13415.696,13425.621,0.553,0.769,0.438,-0.580,1.678,0.549,73.333,396.000
15870.275,15795.800,16202.690,16099.157,16132.238,16162.637,16351.732,16362.640,0.553,0.769,0.437,-0.519,1.740,0.580,73.333,397.000
16153.696,16079.488,16485.574,16382.041,16415.211,16445.699,16634.080,16645.346,0.555,0.770,0.436,-0.549,1.740,0.610,73.333,398.000
13482.662,13408.008,13810.965,13707.253,13739.081,13769.212,13957.860,13967.874,0.555,0.770,0.434,-0.488,1.770,0.488,73.333,399.000
13147.118,13072.284,13474.884,13371.082,13403.269,13433.041,13621.958,13631.346,0.554,0.770,0.436,-0.519,1.770,0.519,73.333,400.000
15975.150,15900.674,16308.370,16205.284,16237.560,16267.689,16457.412,16468.141,0.552,0.771,0.435,-0.549,1.740,0.519,73.333,401.000
16983.660,16909.363,17316.166,17212.990,17245.533,17276.289,17465.297,17476.473,0.555,0.771,0.436,-0.519,1.709,0.458,73.333,402.000
14458.897,14384.153,14789.524,14685.454,14717.552,14747.950,14936.777,14947.148,0.554,0.770,0.434,-0.488,1.740,0.488,73.333,403.000
13455.572,13380.649,13784.143,13680.341,13712.170,13742.300,13931.307,13941.052,0.555,0.770,0.436,-0.519,1.617,0.580,73.333,404.000
16015.920,15941.802,16349.050,16246.321,16278.598,16309.085,16498.629,16509.088,0.556,0.770,0.435,-0.610,1.740,0.488,73.333,405.000
17687.293,17613.533,18021.408,17918.322,17950.150,17980.729,18170.270,18181.893,0.553,0.772,0.435,-0.610,1.617,0.580,73.333,406.000
15492.084,15417.608,15824.410,15720.787,15752.526,15782.925,15972.825,15983.196,0.553,0.772,0.434,-0.671,1.648,0.641,73.333,407.000
13886.156,13811.322,14215.531,14112.267,14143.916,14174.047,14363.500,14373.066,0.554,0.772,0.435,-0.641,1.556,0.702,73.333,408.000
16027.364,15952.888,16359.779,16256.871,16288.969,16319.725,16509.268,16520.086,0.553,0.773,0.437,-0.671,1.587,0.580,73.333,409.000
18251.451,18177.512,18585.297,18482.838,18514.219,18545.332,18734.340,18746.408,0.555,0.773,0.437,-0.671,1.648,0.671,73.333,410.000
16539.844,16465.012,16872.797,16770.336,16801.807,16832.652,17021.928,17032.834,0.556,0.771,0.437,-0.458,1.709,0.549,73.333,411.000
14435.025,14360.460,14766.010,14662.834,14694.127,14724.704,14914.247,14923.992,0.555,0.770,0.438,-0.549,1.648,0.580,73.333,412.000
16038.361,15963.885,16371.402,16268.137,16299.876,16330.722,16520.086,16530.725,0.553,0.770,0.439,-0.549,1.648,0.519,73.333,413.000
18671.664,18597.994,19006.672,18903.676,18935.594,18966.529,19154.820,19167.426,0.555,0.771,0.437,-0.580,1.648,0.549,73.333,414.000
17578.217,17504.457,17912.242,17809.066,17840.984,17871.473,18060.568,18072.549,0.552,0.773,0.434,-0.488,1.740,0.519,73.333,415.000
15110.764,15036.734,15443.536,15339.824,15371.563,15401.783,15591.505,15601.876,0.553,0.771,0.435,-0.549,1.740,0.488,73.333,416.000
16082.617,16008.768,16416.373,16313.020,16345.474,16375.962,16565.236,16575.965,0.555,0.770,0.434,-0.610,1.648,0.580,73.333,417.000
18956.336,18882.754,19291.256,19188.705,19220.176,19251.201,19440.117,19452.188,0.554,0.771,0.435,-0.580,1.617,0.549,73.333,418.000
18561.605,18487.934,18896.344,18793.705,18824.818,18855.932,19045.117,19056.920,0.553,0.771,0.435,-0.549,1.648,0.580,73.333,419.000
15896.383,15821.996,16230.854,16127.768,16159.149,16189.638,16379.448,16389.998,0.554,0.770,0.436,-0.549,1.740,0.610,73.333,420.000
16185.703,16111.406,16520.891,16417.625,16449.186,16479.406,16669.754,16680.482,0.555,0.770,0.433,-0.610,1.709,0.549,73.333,421.000
19122.275,19048.605,19457.910,19355.182,19386.205,19417.498,19606.057,19618.574,0.554,0.772,0.434,-0.580,1.740,0.641,73.333,422.000
19469.264,19395.682,19804.898,19702.080,19733.283,19764.396,19952.957,19965.742,0.554,0.770,0.434,-0.519,1.801,0.580,73.333,423.000
16784.641,16710.076,17120.543,17017.100,17048.928,17079.416,17269.049,17280.312,0.554,0.770,0.434,-0.488,1.801,0.549,73.333,424.000
16376.498,16301.754,16711.416,16608.152,16640.605,16670.916,16860.459,16871.008,0.554,0.770,0.437,-0.458,1.801,0.549,73.333,425.000
19198.719,19124.869,19533.459,19430.730,19462.381,19492.957,19681.963,19694.480,0.553,0.771,0.436,-0.519,1.740,0.610,73.333,426.000
20264.896,20191.762,20601.604,20499.412,20529.900,20561.102,20749.662,20762.625,0.552,0.772,0.432,-0.641,1.801,0.549,73.333,427.000
17751.936,17678.084,18088.730,17986.092,18017.385,18047.783,18237.146,18249.217,0.554,0.772,0.432,-0.580,1.740,0.610,73.333,428.000
16670.021,16595.545,17012.002,16909.186,16938.062,16968.641,17160.240,17171.863,0.555,0.771,0.431,-0.519,1.740,0.580,73.333,429.000
19212.576,19138.994,19548.121,19445.215,19476.775,19507.889,19696.627,19709.500,0.555,0.770,0.436,-0.519,1.678,0.519,73.333,430.000
20931.873,20859.006,21269.385,21167.014,21197.859,21229.510,21417.531,21430.943,0.554,0.767,0.437,-0.488,1.678,0.519,73.333,431.000
18764.648,18690.887,19097.867,18994.871,19028.488,19059.244,19247.715,19259.873,0.553,0.769,0.436,-0.549,1.801,0.549,73.333,432.000
17094.793,17020.586,17419.072,17315.539,17356.846,17387.154,17575.088,17586.174,0.555,0.769,0.437,-0.580,1.770,0.641,73.333,433.000
19193.801,19119.951,19526.932,19424.383,19457.730,19488.844,19677.225,19689.562,0.555,0.770,0.435,-0.580,1.770,0.610,73.333,434.000
21450.881,21377.746,21788.660,21686.469,21716.420,21748.785,21936.449,21949.951,0.554,0.769,0.433,-0.549,1.801,0.610,73.333,435.000
19787.643,19714.598,20123.723,20020.994,20052.109,20083.758,20271.781,20284.299,0.554,0.770,0.436,-0.580,1.740,0.610,73.333,436.000
17633.918,17560.068,17967.496,17864.498,17896.328,17927.084,18115.732,18127.445,0.555,0.769,0.435,-0.641,1.709,0.641,73.333,437.000
19177.352,19103.770,19512.627,19409.898,19441.102,19471.947,19660.863,19673.113,0.557,0.770,0.433,-0.671,1.709,0.610,73.333,438.000
21828.000,21755.223,22166.404,22064.123,22094.074,22125.904,22313.658,22327.428,0.555,0.771,0.432,-0.610,1.740,0.580,73.333,439.000
20791.326,20718.012,21128.479,21025.930,21056.148,21087.799,21276.000,21289.232,0.553,0.771,0.433,-0.610,1.831,0.610,73.333,440.000
18289.629,18215.332,18623.832,18521.014,18552.484,18583.420,18772.248,18784.049,0.553,0.771,0.433,-0.519,1.801,0.610,73.333,441.000
19195.322,19121.293,19530.418,19428.047,19458.982,19489.918,19678.744,19691.172,0.553,0.770,0.431,-0.488,1.709,0.641,73.333,442.000
22070.471,21997.604,22408.967,22307.221,22336.457,22368.375,22556.219,22570.613,0.553,0.772,0.433,-0.580,1.740,0.519,73.333,443.000
21742.885,21670.107,22080.754,21979.008,22008.334,22040.430,22228.275,22242.223,0.555,0.771,0.435,-0.549,1.709,0.549,73.333,444.000
19067.916,18994.066,19402.924,19300.465,19331.131,19362.424,19551.340,19563.500,0.555,0.771,0.436,-0.610,1.709,0.488,73.333,445.000
19284.906,19211.414,19620.631,19518.080,19549.016,19580.219,19768.867,19781.027,0.553,0.770,0.437,-0.641,1.648,0.549,73.333,446.000
22207.443,22135.201,22546.117,22444.191,22473.875,22506.240,22693.459,22707.496,0.555,0.770,0.434,-0.519,1.740,0.580,73.333,447.000
22620.324,22548.084,22959.088,22857.252,22886.398,22919.123,23106.162,23121.092,0.554,0.769,0.434,-0.549,1.740,0.549,73.333,448.000
19946.967,19874.277,20283.314,20181.213,20211.521,20242.902,20431.463,20444.248,0.553,0.771,0.435,-0.549,1.648,0.519,73.333,449.000
19470.158,19397.113,19806.328,19704.047,19734.355,19765.471,19954.387,19966.277,0.553,0.769,0.437,-0.549,1.648,0.427,73.333,450.000
22260.729,22188.398,22599.760,22497.926,22526.805,22559.438,22746.924,22760.783,0.554,0.768,0.438,-0.458,1.587,0.427,73.333,451.000
23392.174,23320.291,23732.367,23630.266,23659.055,23691.867,23878.727,23893.748,0.552,0.771,0.437,-0.488,1.678,0.458,73.333,452.000
20902.369,20829.412,21240.148,21137.420,21167.371,21199.021,21387.223,21400.723,0.553,0.769,0.437,-0.549,1.740,0.549,73.333,453.000
19763.592,19690.010,20099.674,19997.123,20027.969,20059.262,20247.820,20260.516,0.555,0.770,0.438,-0.580,1.709,0.458,73.333,454.000
22253.041,22180.531,22591.893,22489.789,22519.473,22551.748,22739.324,22753.094,0.552,0.770,0.437,-0.580,1.831,0.488,73.333,455.000
24026.428,23954.723,24366.801,24264.965,24293.754,24326.836,24513.428,24528.537,0.552,0.769,0.438,-0.549,1.678,0.610,73.333,456.000
21898.811,21825.676,22236.768,22134.844,22164.707,22196.713,22384.289,22398.326,0.552,0.771,0.436,-0.580,1.770,0.580,73.333,457.000
20172.092,20098.512,20508.889,20406.340,20437.184,20468.566,20656.857,20669.463,0.553,0.771,0.437,-0.519,1.709,0.610,73.333,458.000
22215.758,22142.980,22554.432,22452.238,22481.922,22514.197,22701.684,22715.543,0.552,0.771,0.440,-0.580,1.801,0.549,73.333,459.000
24518.613,24446.908,24859.521,24757.688,24786.119,24819.199,25006.148,25021.527,0.552,0.772,0.438,-0.610,1.770,0.519,73.333,460.000
22907.500,22835.080,23246.889,23145.143,23174.021,23206.744,23394.053,23408.447,0.552,0.772,0.435,-0.580,1.740,0.580,73.333,461.000
20709.250,20636.115,21046.492,20944.301,20974.252,21006.080,21194.193,21207.604,0.553,0.769,0.432,-0.458,1.678,0.488,73.333,462.000
22193.316,22120.807,22532.080,22430.066,22459.213,22491.668,22679.154,22693.102,0.556,0.769,0.435,-0.397,1.648,0.549,73.333,463.000
24875.973,24804.715,25217.150,25115.584,25143.389,25176.738,25363.330,25379.156,0.554,0.769,0.435,-0.458,1.709,0.549,73.333,464.000
23902.867,23830.984,24243.061,24141.316,24169.658,24202.738,24389.688,24404.709,0.552,0.771,0.437,-0.549,1.770,0.549,73.333,465.000
21374.795,21301.570,21712.574,21610.473,21640.156,21671.984,21860.275,21873.686,0.554,0.771,0.439,-0.549,1.770,0.580,73.333,466.000
22212.717,22140.119,22551.391,22449.467,22478.525,22510.891,22698.824,22712.592,0.554,0.771,0.434,-0.488,1.740,0.519,73.333,467.000
25100.027,25028.412,25441.203,25339.459,25367.264,25400.881,25587.473,25602.494,0.555,0.771,0.435,-0.580,1.801,0.549,73.333,468.000
24840.656,24769.043,25182.014,25080.268,25108.074,25141.689,25328.193,25343.393,0.556,0.770,0.437,-0.519,1.740,0.549,73.333,469.000
22149.148,22076.283,22487.912,22385.811,22415.045,22447.143,22634.809,22649.381,0.555,0.771,0.435,-0.488,1.801,0.519,73.333,470.000
22293.184,22220.406,22631.857,22529.934,22559.348,22591.625,22778.842,22793.326,0.555,0.769,0.434,-0.549,1.678,0.549,73.333,471.000
25207.314,25135.699,25548.760,25447.373,25474.730,25508.795,25694.672,25710.498,0.556,0.768,0.436,-0.549,1.617,0.519,73.333,472.000
25686.895,25615.457,26028.160,25926.684,25954.043,25988.195,26174.072,26190.256,0.555,0.770,0.435,-0.519,1.740,0.580,73.333,473.000
23013.982,22941.475,23353.014,23251.090,23280.236,23312.961,23500.088,23514.662,0.555,0.771,0.438,-0.580,1.801,0.519,73.333,474.000
22466.275,22393.855,22805.307,22703.473,22732.619,22764.895,22952.650,22966.865,0.555,0.771,0.434,-0.580,1.801,0.519,73.333,475.000
25231.188,25159.840,25572.721,25471.334,25498.781,25532.488,25718.902,25734.549,0.557,0.771,0.434,-0.549,1.770,0.580,73.333,476.000
26422.625,26351.725,26764.875,26663.844,26690.398,26724.998,26910.965,26927.059,0.555,0.771,0.435,-0.519,1.740,0.519,73.333,477.000
23952.041,23880.336,24292.682,24190.668,24219.279,24252.717,24439.488,24453.973,0.554,0.769,0.437,-0.488,1.740,0.519,73.333,478.000
22747.998,22676.113,23087.475,22985.373,23014.877,23047.600,23234.818,23248.766,0.554,0.769,0.436,-0.610,1.740,0.549,73.333,479.000
25199.268,25128.100,25540.803,25439.506,25467.311,25500.748,25687.162,25702.541,0.553,0.770,0.433,-0.610,1.709,0.580,73.333,480.000
27024.779,26954.686,27368.193,27266.895,27293.447,27327.959,27513.746,27530.287,0.553,0.772,0.433,-0.549,1.740,0.549,73.333,481.000
24930.422,24859.254,25272.045,25170.211,25198.195,25231.902,25418.494,25433.693,0.554,0.771,0.436,-0.580,1.678,0.549,73.333,482.000
23147.826,23075.764,23487.393,23385.469,23414.525,23447.338,23634.467,23648.951,0.554,0.771,0.434,-0.549,1.648,0.549,73.333,483.000
25141.602,25070.434,25483.135,25381.658,25409.107,25442.812,25629.406,25644.605,0.554,0.770,0.433,-0.519,1.709,0.580,73.333,484.000
27483.885,27413.789,27827.744,27726.445,27752.018,27787.779,27972.852,27989.570,0.554,0.771,0.436,-0.519,1.740,0.610,73.333,485.000
25920.246,25849.436,26262.676,26161.020,26187.662,26222.441,26408.588,26424.322,0.556,0.771,0.436,-0.519,1.801,0.549,73.333,486.000
23676.758,23605.053,24017.039,23915.295,23943.459,23976.807,24164.115,24178.420,0.555,0.771,0.435,-0.580,1.831,0.549,73.333,487.000
25100.475,25029.217,25442.188,25340.264,25368.158,25401.955,25588.457,25603.566,0.554,0.770,0.433,-0.610,1.770,0.519,73.333,488.000
27804.945,27735.029,28148.805,28047.418,28073.613,28109.197,28294.092,28310.631,0.555,0.769,0.433,-0.580,1.709,0.458,73.333,489.000
26889.150,26819.322,27232.562,27131.086,27157.908,27192.598,27378.205,27394.656,0.554,0.769,0.434,-0.397,1.678,0.458,73.333,490.000
24331.574,24260.854,24672.840,24570.916,24599.527,24632.785,24819.646,24834.221,0.553,0.770,0.437,-0.488,1.678,0.549,73.333,491.000
25103.066,25031.988,25444.244,25342.768,25370.572,25404.457,25590.424,25606.070,0.553,0.770,0.434,-0.458,1.678,0.427,73.333,492.000
27994.668,27924.482,28337.900,28237.318,28262.709,28298.293,28483.545,28500.354,0.554,0.771,0.437,-0.549,1.709,0.427,73.333,493.000
27796.541,27726.268,28139.596,28038.834,28064.494,28100.168,28285.061,28301.869,0.554,0.771,0.437,-0.610,1.709,0.458,73.333,494.000
25088.852,25017.684,25429.850,25328.461,25356.268,25390.152,25576.656,25591.855,0.554,0.770,0.438,-0.580,1.648,0.610,73.333,495.000
25165.205,25094.215,25506.738,25405.352,25432.711,25466.686,25653.277,25668.834,0.553,0.770,0.435,-0.549,1.678,0.580,73.333,496.000
28071.914,28002.088,28415.596,28315.102,28340.314,28376.256,28561.061,28578.137,0.555,0.770,0.435,-0.580,1.831,0.519,73.333,497.000
28612.381,28542.822,28956.508,28855.479,28880.689,28916.990,29101.436,29118.691,0.553,0.768,0.436,-0.671,1.770,0.519,73.333,498.000
25940.006,25869.285,26282.166,26180.689,26207.689,26242.201,26428.346,26443.814,0.555,0.771,0.433,-0.610,1.801,0.488,73.333,499.000
25323.275,25252.377,25665.078,25563.781,25590.961,25624.846,25811.080,25826.727,0.556,0.770,0.431,-0.488,1.831,0.458,73.333,500.000
28064.674,27994.936,28408.621,28307.592,28333.342,28368.479,28553.371,28570.717,0.554,0.772,0.432,-0.458,1.709,0.427,73.333,501.000
29315.029,29245.650,29659.961,29559.111,29583.787,29619.908,29804.354,29822.414,0.553,0.771,0.432,-0.427,1.709,0.519,73.333,502.000
26863.580,26792.947,27206.635,27105.426,27131.531,27166.311,27352.189,27368.908,0.555,0.771,0.432,-0.427,1.740,0.580,73.333,503.000
25596.682,25525.693,25938.396,25837.098,25864.188,25898.342,26084.666,26100.580,0.552,0.770,0.434,-0.488,1.831,0.458,73.333,504.000
28011.029,27940.934,28354.619,28253.947,28279.340,28314.834,28499.459,28516.893,0.553,0.770,0.437,-0.549,1.801,0.519,73.333,505.000
29889.291,29820.180,30234.938,30134.355,30158.049,30195.062,30378.615,30397.033,0.553,0.770,0.436,-0.488,1.770,0.580,73.333,506.000
27834.449,27764.803,28178.756,28077.816,28103.117,28138.613,28323.596,28340.672,0.550,0.768,0.437,-0.488,1.709,0.519,73.333,507.000
25996.510,25926.059,26339.029,26237.910,26264.643,26298.795,26484.941,26501.033,0.551,0.770,0.433,-0.580,1.648,0.549,73.333,508.000
27940.844,27870.660,28284.613,28183.674,28209.064,28244.381,28429.543,28446.352,0.553,0.771,0.436,-0.641,1.678,0.641,73.333,509.000
30320.947,30251.656,30666.863,30566.102,30589.348,30626.631,30810.541,30828.957,0.555,0.771,0.436,-0.580,1.678,0.549,73.333,510.000
28808.986,28739.605,29153.918,29052.709,29077.475,29113.953,29298.488,29315.924,0.552,0.770,0.435,-0.610,1.648,0.580,73.333,511.000
26519.811,26449.893,26862.863,26761.477,26788.031,26822.988,27009.045,27025.049,0.552,0.771,0.435,-0.610,1.678,0.641,73.333,512.000
27880.316,27810.758,28224.264,28123.324,28148.447,28184.479,28369.641,28386.449,0.553,0.770,0.432,-0.519,1.801,0.458,73.333,513.000
30606.691,30537.850,30952.877,30851.846,30875.359,30913.180,31096.463,31115.061,0.555,0.772,0.434,-0.397,1.801,0.397,73.333,514.000
29753.213,29684.816,30099.219,29997.920,30022.061,30059.342,30243.252,30261.223,0.555,0.771,0.435,-0.397,1.801,0.397,73.333,515.000
27164.791,27095.232,27508.383,27406.906,27433.459,27468.775,27654.115,27670.119,0.555,0.770,0.434,-0.580,1.740,0.366,73.333,516.000
27867.084,27797.436,28211.121,28109.824,28135.752,28171.604,28356.051,28372.947,0.554,0.770,0.436,-0.549,1.587,0.458,73.333,517.000
30767.357,30698.424,31113.541,31012.867,31036.113,31074.201,31256.949,31275.904,0.553,0.770,0.434,-0.519,1.678,0.519,73.333,518.000
30635.570,30566.549,30981.576,30880.545,30903.971,30941.879,31124.805,31143.670,0.554,0.770,0.433,-0.610,1.648,0.549,73.333,519.000
27917.150,27847.057,28260.922,28159.713,28185.641,28221.582,28406.029,28423.016,0.552,0.770,0.435,-0.641,1.709,0.580,73.333,520.000
27925.287,27855.104,28269.414,28168.207,28193.955,28229.986,28414.434,28431.330,0.555,0.769,0.434,-0.641,1.678,0.580,73.333,521.000
30818.766,30750.012,31165.576,31064.725,31087.701,31125.879,31308.715,31327.492,0.554,0.771,0.432,-0.580,1.770,0.580,73.333,522.000
31426.645,31358.248,31774.168,31672.959,31695.758,31734.383,31916.773,31935.816,0.556,0.771,0.436,-0.580,1.740,0.610,73.333,523.000
28763.566,28694.098,29108.588,29007.201,29032.057,29068.445,29252.533,29270.146,0.554,0.771,0.438,-0.549,1.617,0.580,73.333,524.000
28080.498,28010.760,28424.535,28323.686,28348.986,28384.840,28569.465,28586.898,0.554,0.771,0.437,-0.580,1.648,0.549,73.333,525.000
30793.910,30725.424,31140.273,31039.869,31062.668,31100.844,31283.682,31302.814,0.553,0.771,0.435,-0.549,1.678,0.519,73.333,526.000
32103.633,32035.506,32451.248,32350.576,32372.570,32411.730,32593.852,32613.342,0.553,0.771,0.433,-0.580,1.648,0.519,73.333,527.000
29677.307,29608.105,30022.953,29922.104,29945.795,29983.258,30166.631,30184.602,0.553,0.771,0.434,-0.488,1.770,0.610,73.333,528.000
28346.752,28277.014,28690.789,28589.850,28614.973,28651.451,28835.719,28852.705,0.554,0.770,0.437,-0.488,1.770,0.519,73.333,529.000
30717.379,30648.713,31063.473,30962.801,30986.135,31024.312,31206.971,31225.479,0.554,0.772,0.434,-0.519,1.740,0.580,73.333,530.000
32644.098,32576.061,32991.980,32891.219,32913.035,32952.551,33134.586,33154.074,0.554,0.770,0.434,-0.488,1.740,0.671,73.333,531.000
30628.865,30559.844,30975.229,30874.287,30897.801,30935.352,31118.814,31137.232,0.553,0.769,0.436,-0.488,1.770,0.641,73.333,532.000
28738.891,28669.154,29083.734,28982.525,29008.006,29043.857,29228.572,29245.738,0.554,0.770,0.435,-0.580,1.709,0.641,73.333,533.000
30628.418,30559.664,30974.691,30873.662,30897.354,30935.084,31118.279,31136.875,0.556,0.770,0.435,-0.610,1.648,0.519,73.333,534.000
33044.016,32975.887,33391.539,33291.047,33312.684,33352.379,33533.789,33554.082,0.554,0.771,0.433,-0.549,1.709,0.519,73.333,535.000
31585.072,31516.676,31931.883,31831.389,31854.098,31892.633,32074.844,32094.514,0.555,0.771,0.436,-0.580,1.770,0.519,73.333,536.000
29257.898,29188.607,29603.010,29501.891,29526.924,29563.580,29747.133,29765.551,0.555,0.770,0.435,-0.610,1.678,0.610,73.333,537.000
30556.982,30488.049,30902.986,30802.137,30826.275,30863.201,31047.111,31065.619,0.553,0.769,0.436,-0.610,1.709,0.580,73.333,538.000
33303.027,33234.723,33650.910,33550.773,33572.410,33611.570,33793.426,33813.633,0.554,0.769,0.435,-0.580,1.678,0.519,73.333,539.000
32508.469,32439.625,32855.992,32755.678,32777.852,32816.297,32998.598,33018.535,0.555,0.769,0.435,-0.610,1.709,0.519,73.333,540.000
29894.834,29825.543,30240.480,30139.809,30164.217,30200.695,30384.783,30403.113,0.554,0.769,0.437,-0.549,1.648,0.580,73.333,541.000
30530.695,30461.584,30876.611,30775.939,30799.900,30837.004,31020.914,31039.242,0.552,0.768,0.433,-0.427,1.678,0.488,73.333,542.000
33435.707,33367.492,33783.949,33683.277,33704.734,33744.340,33926.105,33946.402,0.554,0.770,0.432,-0.458,1.770,0.549,73.333,543.000
33366.773,33298.648,33714.926,33614.789,33635.621,33675.496,33857.172,33877.824,0.555,0.772,0.433,-0.549,1.709,0.549,73.333,544.000
30642.812,30573.521,30988.639,30888.234,30911.303,30949.031,31132.316,31151.182,0.554,0.771,0.432,-0.610,1.740,0.549,73.333,545.000
30581.033,30512.189,30927.484,30826.723,30850.416,30887.967,31070.715,31089.848,0.554,0.770,0.433,-0.641,1.740,0.580,73.333,546.000
33463.066,33395.117,33811.395,33711.172,33732.539,33772.059,33953.105,33974.027,0.555,0.771,0.436,-0.610,1.740,0.610,73.333,547.000
34131.832,34063.973,34480.250,34380.113,34400.676,34441.270,34622.227,34642.883,0.553,0.771,0.436,-0.549,1.678,0.610,73.333,548.000
31478.320,31409.836,31824.773,31724.547,31747.436,31785.791,31968.182,31987.314,0.553,0.771,0.437,-0.610,1.648,0.610,73.333,549.000
30727.660,30658.459,31073.219,30972.902,30996.328,31034.146,31216.984,31235.939,0.553,0.771,0.437,-0.641,1.709,0.488,73.333,550.000
33413.535,33345.406,33761.508,33661.641,33682.648,33722.703,33903.844,33924.676,0.555,0.771,0.436,-0.580,1.740,0.458,73.333,551.000
34776.723,34709.398,35126.035,35026.078,35045.926,35087.145,35267.391,35289.473,0.555,0.771,0.436,-0.519,1.770,0.488,73.333,552.000
32377.486,32309.359,32724.832,32624.697,32646.602,32685.672,32867.883,32887.910,0.554,0.770,0.433,-0.519,1.740,0.488,73.333,553.000
30988.371,30919.260,31334.555,31234.330,31257.217,31295.125,31478.410,31497.365,0.553,0.769,0.434,-0.519,1.770,0.488,73.333,554.000
33317.422,33249.383,33665.395,33565.168,33586.270,33626.324,33807.730,33828.473,0.552,0.769,0.436,-0.488,1.770,0.610,73.333,555.000
35288.578,35221.344,35638.160,35537.844,35557.516,35599.180,35779.242,35801.148,0.551,0.770,0.436,-0.549,1.831,0.580,73.333,556.000
33313.578,33245.539,33661.371,33561.145,33582.156,33622.480,33803.438,33824.359,0.553,0.770,0.436,-0.549,1.678,0.519,73.333,557.000
31372.910,31304.424,31719.451,31618.869,31641.488,31680.023,31862.682,31882.082,0.553,0.771,0.436,-0.488,1.648,0.580,73.333,558.000
33207.453,33139.414,33555.512,33455.020,33476.566,33516.262,33697.582,33718.234,0.554,0.771,0.434,-0.488,1.648,0.580,73.333,559.000
35654.699,35587.109,36004.012,35903.699,35923.277,35965.121,36144.828,36166.824,0.555,0.770,0.434,-0.519,1.709,0.610,73.333,560.000
34247.613,34179.664,34595.941,34495.270,34516.281,34556.781,34737.742,34758.754,0.554,0.769,0.433,-0.610,1.770,0.549,73.333,561.000
31882.439,31813.955,32229.430,32128.668,32151.377,32189.910,32372.570,32391.703,0.555,0.770,0.437,-0.610,1.648,0.549,73.333,562.000
33119.387,33051.438,33467.180,33366.953,33388.234,33427.930,33609.695,33629.809,0.557,0.771,0.435,-0.549,1.678,0.549,73.333,563.000
35882.598,35815.098,36232.625,36132.312,36151.266,36193.555,36373.266,36395.527,0.558,0.771,0.437,-0.549,1.740,0.580,73.333,564.000
35146.062,35078.113,35495.555,35395.242,35414.465,35455.859,35636.281,35658.188,0.556,0.769,0.436,-0.580,1.709,0.549,73.333,565.000
32512.223,32443.738,32860.016,32759.434,32780.891,32819.961,33002.172,33022.199,0.555,0.771,0.437,-0.641,1.740,0.549,73.333,566.000
33075.129,33006.824,33422.477,33322.250,33343.707,33383.137,33564.902,33585.195,0.554,0.770,0.433,-0.549,1.740,0.580,73.333,567.000
35979.961,35912.102,36329.543,36229.141,36248.809,36290.652,36470.090,36492.176,0.553,0.771,0.434,-0.610,1.709,0.519,73.333,568.000
35981.125,35913.801,36331.332,36230.930,36249.973,36292.352,36471.434,36493.695,0.553,0.771,0.434,-0.580,1.648,0.519,73.333,569.000
33249.832,33182.148,33597.891,33497.488,33518.766,33558.555,33739.871,33760.344,0.555,0.771,0.431,-0.641,1.801,0.549,73.333,570.000
33119.566,33051.617,33466.910,33366.953,33388.859,33427.840,33609.426,33629.809,0.555,0.771,0.436,-0.671,1.678,0.488,73.333,571.000
35986.223,35918.449,36335.355,36235.219,36254.801,36296.465,36476.352,36498.254,0.555,0.770,0.435,-0.641,1.648,0.488,73.333,572.000
36715.246,36647.832,37065.543,36965.137,36983.824,37026.473,37206.090,37228.441,0.554,0.768,0.432,-0.610,1.770,0.580,73.333,573.000
34073.895,34006.035,34422.402,34322.000,34342.742,34383.152,34564.023,34584.945,0.553,0.770,0.433,-0.641,1.801,0.488,73.333,574.000
33257.609,33189.480,33605.223,33505.086,33526.277,33566.062,33747.469,33768.125,0.552,0.771,0.435,-0.641,1.678,0.458,73.333,575.000
35911.922,35844.332,36261.953,36161.371,36180.504,36222.883,36402.500,36424.492,0.554,0.772,0.436,-0.488,1.740,0.488,73.333,576.000
37331.707,37264.113,37682.539,37582.047,37600.285,37643.738,37822.461,37845.352,0.556,0.770,0.434,-0.549,1.709,0.458,73.333,577.000
34960.453,34892.504,35310.125,35209.543,35229.480,35270.875,35451.121,35472.488,0.556,0.771,0.435,-0.488,1.740,0.488,73.333,578.000
33511.793,33443.484,33860.570,33759.719,33780.996,33820.785,34002.371,34022.754,0.554,0.771,0.435,-0.488,1.862,0.488,73.333,579.000
35797.930,35730.070,36147.957,36047.195,36066.508,36108.441,36288.508,36310.680,0.554,0.770,0.435,-0.519,1.770,0.458,73.333,580.000
37816.203,37748.699,38167.305,38066.543,38084.156,38128.234,38307.227,38330.203,0.554,0.770,0.436,-0.549,1.709,0.580,73.333,581.000
35883.223,35815.453,36232.895,36132.492,36151.535,36193.734,36373.621,36395.438,0.554,0.769,0.432,-0.610,1.678,0.519,73.333,582.000
33891.414,33823.555,34240.102,34139.965,34160.441,34200.852,34381.543,34402.555,0.553,0.771,0.432,-0.549,1.709,0.519,73.333,583.000
35672.848,35604.898,36022.789,35922.207,35941.695,35983.004,36162.977,36185.242,0.554,0.771,0.432,-0.641,1.678,0.549,73.333,584.000
38153.445,38085.855,38504.906,38404.145,38421.758,38465.656,38643.844,38667.445,0.552,0.771,0.436,-0.549,1.709,0.610,73.333,585.000
36799.824,36732.680,37150.301,37050.074,37068.492,37111.316,37290.312,37313.289,0.554,0.771,0.433,-0.488,1.770,0.549,73.333,586.000
34401.215,34333.531,34749.992,34649.766,34669.883,34710.293,34891.344,34912.891,0.555,0.771,0.437,-0.580,1.801,0.519,73.333,587.000
35573.695,35506.016,35923.457,35823.230,35842.188,35884.027,36064.094,36085.730,0.555,0.770,0.436,-0.732,1.801,0.488,73.333,588.000
38354.074,38286.574,38705.535,38605.129,38622.297,38666.641,38844.742,38868.254,0.554,0.768,0.438,-0.641,1.678,0.458,73.333,589.000
37681.555,37613.605,38032.031,37931.719,37949.598,37993.141,38171.773,38194.840,0.556,0.769,0.437,-0.610,1.740,0.458,73.333,590.000
35028.852,34961.082,35377.984,35277.938,35297.340,35338.914,35519.250,35540.258,0.555,0.771,0.433,-0.610,1.648,0.519,73.333,591.000
35530.156,35462.922,35880.543,35779.871,35799.359,35840.934,36020.820,36042.727,0.556,0.770,0.436,-0.580,1.801,0.397,73.333,592.000
38435.703,38368.379,38787.609,38686.668,38704.641,38748.809,38926.547,38950.422,0.554,0.772,0.436,-0.519,1.770,0.488,73.333,593.000
38493.641,38426.316,38845.188,38744.516,38762.309,38806.652,38984.395,39008.176,0.555,0.773,0.436,-0.488,1.709,0.458,73.333,594.000
35762.613,35695.023,36112.016,36011.879,36031.102,36072.945,36253.012,36274.559,0.555,0.774,0.437,-0.580,1.678,0.488,73.333,595.000
35565.562,35497.699,35914.695,35814.738,35833.781,35876.070,36055.691,36077.238,0.555,0.772,0.435,-0.488,1.740,0.549,73.333,596.000
38415.410,38347.906,38766.777,38666.105,38683.898,38728.512,38906.164,38929.410,0.554,0.771,0.436,-0.549,1.648,0.702,73.333,597.000
39208.629,39141.125,39560.445,39459.949,39477.027,39522.000,39699.652,39723.699,0.553,0.771,0.435,-0.610,1.648,0.580,73.333,598.000
36581.852,36514.168,36931.879,36831.652,36850.430,36892.988,37072.516,37094.867,0.554,0.768,0.435,-0.641,1.648,0.549,73.333,599.000
35701.996,35634.406,36051.488,35951.172,35971.023,36012.508,36192.660,36214.477,0.553,0.770,0.435,-0.549,1.648,0.549,73.333,600.000
38327.254,38259.660,38678.176,38577.949,38595.832,38639.820,38818.188,38841.434,0.553,0.770,0.433,-0.519,1.617,0.488,73.333,601.000
39804.703,39737.203,40156.609,40056.207,40073.102,40118.523,40295.816,40319.777,0.552,0.770,0.432,-0.458,1.709,0.519,73.333,602.000
37463.852,37395.902,37814.324,37714.277,37732.160,37775.613,37954.246,37977.137,0.553,0.772,0.436,-0.549,1.617,0.458,73.333,603.000
35959.043,35891.359,36308.980,36208.664,36227.797,36269.641,36449.527,36471.523,0.553,0.772,0.436,-0.671,1.617,0.549,73.333,604.000
38199.402,38131.719,38550.504,38449.742,38468.160,38511.699,38689.977,38713.312,0.556,0.771,0.433,-0.610,1.709,0.610,73.333,605.000
40262.109,40194.875,40614.551,40513.789,40530.688,40576.375,40753.578,40777.898,0.554,0.772,0.432,-0.610,1.740,0.610,73.333,606.000
38373.836,38306.332,38725.652,38624.980,38642.324,38686.312,38864.859,38888.102,0.554,0.771,0.436,-0.641,1.740,0.580,73.333,607.000
36339.199,36271.785,36689.406,36589.270,36607.598,36650.426,36829.953,36851.680,0.555,0.771,0.438,-0.580,1.617,0.580,73.333,608.000
38065.738,37998.234,38416.660,38316.523,38333.957,38378.035,38556.672,38579.648,0.554,0.770,0.436,-0.610,1.648,0.549,73.333,609.000
40576.645,40508.961,40928.996,40828.234,40844.508,40890.551,41067.578,41092.164,0.555,0.770,0.433,-0.549,1.709,0.580,73.333,610.000
39276.309,39208.895,39628.035,39527.363,39544.707,39589.680,39767.242,39791.203,0.555,0.769,0.436,-0.519,1.740,0.580,73.333,611.000
36846.227,36778.812,37197.059,37096.387,37115.164,37158.168,37337.250,37359.781,0.554,0.770,0.436,-0.519,1.678,0.671,73.333,612.000
37958.270,37891.395,38310.086,38209.324,38227.387,38271.285,38449.562,38472.898,0.553,0.771,0.436,-0.610,1.678,0.519,73.333,613.000
40753.312,40686.258,41106.289,41005.527,41022.070,41068.113,41244.871,41270.172,0.551,0.771,0.436,-0.519,1.770,0.488,73.333,614.000
40142.305,40075.695,40495.195,40394.434,40411.152,40456.926,40633.953,40659.078,0.553,0.770,0.436,-0.519,1.678,0.488,73.333,615.000
37471.270,37404.574,37822.641,37722.059,37740.117,37783.926,37962.562,37985.719,0.551,0.770,0.435,-0.610,1.678,0.427,73.333,616.000
37906.863,37839.539,38258.051,38157.648,38175.441,38219.340,38397.438,38421.129,0.553,0.770,0.435,-0.519,1.617,0.458,73.333,617.000
40813.750,40746.695,41166.461,41065.789,41082.152,41128.375,41305.043,41330.434,0.553,0.768,0.438,-0.610,1.617,0.458,73.333,618.000
40936.684,40869.094,41288.859,41188.367,41204.906,41251.309,41428.066,41453.367,0.553,0.770,0.435,-0.549,1.740,0.488,73.333,619.000
38203.961,38136.637,38555.062,38454.926,38472.898,38516.797,38695.074,38718.230,0.554,0.770,0.436,-0.549,1.740,0.549,73.333,620.000
37940.566,37873.691,38292.027,38191.801,38209.863,38253.492,38431.500,38454.660,0.556,0.771,0.436,-0.549,1.678,0.580,73.333,621.000
40772.445,40705.480,41125.066,41024.484,41041.203,41086.891,41263.559,41288.590,0.554,0.769,0.435,-0.610,1.709,0.580,73.333,622.000
41628.875,41561.641,41981.852,41881.180,41897.543,41943.766,42119.988,42145.734,0.555,0.769,0.436,-0.580,1.770,0.519,73.333,623.000
39018.191,38951.312,39370.363,39269.871,39287.125,39331.742,39509.480,39533.531,0.553,0.771,0.435,-0.580,1.770,0.549,73.333,624.000
38073.785,38006.996,38425.602,38325.020,38342.719,38386.797,38564.898,38588.320,0.553,0.771,0.434,-0.458,1.770,0.549,73.333,625.000
40666.230,40599.086,41018.941,40918.270,40934.809,40980.852,41157.430,41182.109,0.553,0.771,0.436,-0.488,1.831,0.519,73.333,626.000
42198.844,42131.789,42551.734,42451.418,42467.422,42514.273,42690.582,42715.617,0.554,0.771,0.437,-0.488,1.678,0.549,73.333,627.000
39890.801,39823.926,40243.336,40142.484,40159.648,40204.621,40382.539,40406.504,0.554,0.772,0.436,-0.610,1.709,0.549,73.333,628.000
38327.344,38260.289,38678.891,38578.488,38596.191,38639.820,38818.543,38842.059,0.556,0.771,0.436,-0.549,1.740,0.580,73.333,629.000
40520.941,40453.887,40873.562,40773.250,40789.789,40835.387,41012.504,41037.090,0.554,0.771,0.438,-0.488,1.740,0.671,73.333,630.000
42628.625,42561.566,42981.691,42881.199,42896.844,42944.410,43120.363,43145.844,0.555,0.770,0.435,-0.549,1.770,0.671,73.333,631.000
40785.500,40719.070,41138.477,41038.164,41054.613,41100.656,41277.414,41302.180,0.555,0.771,0.434,-0.580,1.709,0.610,73.333,632.000
38706.430,38639.820,39058.781,38958.109,38975.902,39019.980,39198.344,39221.414,0.554,0.769,0.435,-0.519,1.740,0.549,73.333,633.000
40377.176,40309.941,40729.977,40629.484,40646.113,40691.621,40869.094,40892.875,0.555,0.770,0.434,-0.549,1.709,0.488,73.333,634.000
42918.211,42850.711,43271.461,43170.965,43186.523,43234.355,43410.398,43435.609,0.555,0.770,0.433,-0.549,1.709,0.458,73.333,635.000
41674.293,41606.969,42027.273,41926.867,41942.871,41989.723,42165.941,42191.066,0.553,0.769,0.436,-0.427,1.770,0.519,73.333,636.000
39210.594,39143.094,39562.500,39462.273,39479.082,39523.965,39701.527,39725.133,0.554,0.771,0.433,-0.519,1.740,0.549,73.333,637.000
40259.875,40192.371,40612.137,40511.734,40528.094,40573.871,40750.809,40774.949,0.554,0.772,0.433,-0.488,1.740,0.488,73.333,638.000
43070.652,43002.879,43423.539,43322.867,43338.605,43386.258,43562.121,43587.781,0.554,0.772,0.433,-0.488,1.648,0.427,73.333,639.000
42518.922,42451.598,42871.988,42770.961,42787.410,42834.348,43010.840,43035.691,0.555,0.772,0.433,-0.580,1.678,0.519,73.333,640.000
39831.793,39764.738,40184.148,40083.297,40100.641,40145.434,40322.996,40347.047,0.555,0.773,0.433,-0.580,1.617,0.549,73.333,641.000
40201.043,40133.812,40553.578,40452.992,40469.801,40515.043,40692.336,40716.832,0.555,0.771,0.433,-0.519,1.648,0.519,73.333,642.000
43105.164,43037.480,43458.320,43357.828,43373.562,43421.039,43596.902,43622.562,0.553,0.772,0.431,-0.488,1.587,0.458,73.333,643.000
43290.770,43223.270,43644.020,43543.348,43558.992,43606.914,43782.777,43808.348,0.552,0.771,0.433,-0.580,1.617,0.488,73.333,644.000
40556.797,40489.203,40908.969,40808.742,40825.105,40871.062,41047.996,41072.316,0.553,0.772,0.435,-0.549,1.617,0.458,73.333,645.000
40226.078,40158.844,40578.520,40478.027,40494.656,40540.613,40717.191,40741.867,0.553,0.771,0.433,-0.488,1.709,0.427,73.333,646.000
43043.023,42975.613,43396.184,43295.688,43311.336,43359.258,43534.852,43560.781,0.554,0.771,0.433,-0.580,1.709,0.580,73.333,647.000
43957.391,43889.621,44310.191,44210.055,44225.344,44273.621,44449.039,44475.324,0.554,0.772,0.436,-0.488,1.770,0.488,73.333,648.000
41361.457,41294.047,41714.258,41613.496,41630.035,41676.527,41852.660,41878.141,0.554,0.771,0.437,-0.580,1.740,0.519,73.333,649.000
40358.668,40291.523,40711.469,40610.527,40627.516,40673.023,40850.051,40874.637,0.554,0.773,0.438,-0.549,1.617,0.580,73.333,650.000
42917.051,42849.906,43269.852,43169.715,43185.359,43232.656,43408.789,43434.090,0.553,0.772,0.436,-0.549,1.740,0.488,73.333,651.000
44501.969,44434.285,44854.590,44754.812,44770.188,44818.199,44993.887,45019.902,0.554,0.770,0.434,-0.519,1.740,0.488,73.333,652.000
42222.715,42155.215,42575.875,42475.199,42491.293,42537.965,42714.188,42739.668,0.554,0.769,0.434,-0.549,1.709,0.458,73.333,653.000
40607.578,40540.613,40960.469,40859.527,40876.156,40922.379,41098.871,41123.727,0.553,0.771,0.435,-0.519,1.770,0.519,73.333,654.000
42758.176,42691.117,43111.688,43010.926,43026.844,43074.227,43250.180,43275.750,0.554,0.772,0.435,-0.580,1.740,0.519,73.333,655.000
44905.191,44837.602,45258.352,45158.484,45173.324,45221.871,45397.199,45423.309,0.556,0.770,0.434,-0.549,1.678,0.519,73.333,656.000
43107.664,43040.344,43461.004,43360.688,43376.156,43423.719,43599.402,43625.332,0.552,0.770,0.433,-0.519,1.831,0.488,73.333,657.000
40987.199,40920.145,41340.359,41239.508,41255.957,41302.004,41478.848,41503.527,0.556,0.771,0.436,-0.580,1.709,0.519,73.333,658.000
42602.250,42534.926,42955.316,42855.090,42870.648,42917.945,43094.254,43119.289,0.554,0.771,0.437,-0.580,1.770,0.549,73.333,659.000
45170.285,45102.605,45522.996,45423.574,45438.504,45486.516,45662.738,45687.953,0.554,0.769,0.438,-0.519,1.740,0.549,73.333,660.000
43981.441,43913.938,44334.418,44234.371,44249.570,44297.492,44473.535,44499.016,0.553,0.770,0.436,-0.549,1.709,0.610,73.333,661.000
41487.344,41420.109,41840.055,41739.648,41755.562,41802.324,41978.723,42003.938,0.553,0.768,0.437,-0.580,1.648,0.641,73.333,662.000
42472.785,42405.465,42826.035,42725.449,42741.098,42788.660,42964.613,42990.008,0.555,0.770,0.437,-0.610,1.740,0.549,73.333,663.000
45297.867,45230.008,45650.758,45551.336,45565.555,45614.457,45790.145,45816.070,0.554,0.770,0.434,-0.610,1.801,0.580,73.333,664.000
44809.082,44741.309,45162.059,45062.727,45077.301,45125.582,45301.176,45327.195,0.555,0.770,0.435,-0.549,1.709,0.580,73.333,665.000
42106.574,42038.805,42459.645,42359.328,42375.242,42422.184,42598.492,42623.883,0.555,0.770,0.435,-0.671,1.617,0.519,73.333,666.000
42410.918,42343.234,42764.164,42663.582,42679.316,42726.344,42902.477,42928.227,0.554,0.770,0.436,-0.610,1.678,0.519,73.333,667.000
45309.133,45241.094,45661.754,45562.066,45576.820,45625.367,45801.051,45826.980,0.553,0.771,0.433,-0.641,1.831,0.610,73.333,668.000
45559.832,45492.062,45912.809,45813.121,45827.785,45876.152,46052.195,46077.945,0.552,0.769,0.432,-0.549,1.770,0.610,73.333,669.000
42827.105,42760.051,43180.531,43080.039,43095.598,43143.160,43319.023,43344.773,0.554,0.771,0.433,-0.549,1.740,0.610,73.333,670.000
42434.699,42367.645,42788.125,42687.543,42703.457,42750.934,42926.527,42952.367,0.555,0.770,0.436,-0.519,1.678,0.549,73.333,671.000
45229.562,45162.059,45582.629,45482.941,45497.961,45546.332,45721.746,45747.855,0.556,0.770,0.433,-0.519,1.678,0.549,73.333,672.000
46205.082,46137.043,46557.613,46458.371,46473.125,46521.672,46697.266,46723.375,0.555,0.770,0.433,-0.610,1.709,0.580,73.333,673.000
43630.520,43562.926,43983.676,43883.270,43898.648,43946.480,44122.344,44148.453,0.553,0.770,0.435,-0.671,1.740,0.580,73.333,674.000
42567.469,42500.234,42920.984,42820.043,42835.957,42883.344,43059.117,43085.402,0.554,0.770,0.435,-0.610,1.709,0.549,73.333,675.000
45091.516,45023.836,45444.586,45344.629,45359.648,45407.930,45583.254,45609.898,0.554,0.772,0.436,-0.488,1.709,0.488,73.333,676.000
46728.559,46660.969,47081.180,46982.117,46996.602,47044.793,47220.836,47246.762,0.556,0.772,0.436,-0.488,1.617,0.458,73.333,677.000
44483.906,44416.762,44837.066,44737.285,44752.219,44800.320,44975.914,45002.020,0.554,0.771,0.434,-0.519,1.709,0.488,73.333,678.000
42818.613,42751.559,43172.039,43071.188,43087.102,43134.758,43310.711,43336.102,0.552,0.771,0.435,-0.641,1.678,0.519,73.333,679.000
44923.879,44856.289,45277.035,45176.453,45192.191,45240.289,45415.977,45441.637,0.554,0.769,0.434,-0.580,1.770,0.488,73.333,680.000
47112.383,47044.254,47464.648,47365.582,47380.066,47428.707,47604.570,47630.141,0.554,0.769,0.431,-0.580,1.831,0.458,73.333,681.000
45359.113,45291.164,45712.000,45612.223,45626.887,45675.434,45851.297,45877.227,0.554,0.771,0.433,-0.580,1.770,0.549,73.333,682.000
43195.910,43128.586,43549.156,43448.934,43464.309,43512.230,43688.008,43714.023,0.553,0.770,0.434,-0.580,1.678,0.610,73.333,683.000
44758.566,44690.617,45111.098,45011.586,45026.520,45074.621,45250.215,45276.320,0.554,0.771,0.436,-0.549,1.617,0.580,73.333,684.000
47355.840,47287.176,47707.207,47608.770,47622.898,47671.000,47847.754,47873.059,0.553,0.770,0.434,-0.519,1.678,0.519,73.333,685.000
46222.875,46154.656,46574.777,46475.805,46490.379,46538.480,46714.969,46740.449,0.554,0.770,0.435,-0.549,1.678,0.519,73.333,686.000
43702.402,43634.809,44056.004,43955.422,43970.531,44018.902,44194.586,44220.426,0.556,0.769,0.432,-0.488,1.740,0.549,73.333,687.000
44630.090,44562.316,44982.887,44883.020,44898.219,44946.500,45122.184,45147.934,0.555,0.769,0.437,-0.549,1.862,0.488,73.333,688.000
47464.648,47396.340,47816.195,47718.117,47732.422,47780.699,47957.102,47982.312,0.555,0.772,0.436,-0.519,1.801,0.549,73.333,689.000
47035.316,46966.918,47387.398,47288.516,47302.641,47351.457,47527.500,47553.070,0.555,0.771,0.435,-0.519,1.770,0.580,73.333,690.000
44325.301,44257.262,44678.277,44577.875,44593.254,44641.891,44817.305,44843.145,0.555,0.771,0.434,-0.549,1.740,0.488,73.333,691.000
44567.949,44500.000,44921.109,44820.703,44836.082,44884.184,45060.137,45085.973,0.553,0.771,0.435,-0.519,1.709,0.488,73.333,692.000
47461.785,47393.480,47814.051,47715.074,47729.648,47777.391,47954.508,47979.273,0.552,0.771,0.438,-0.580,1.801,0.519,73.333,693.000
47771.043,47702.559,48122.594,48024.426,48038.820,48086.383,48263.586,48288.352,0.552,0.770,0.434,-0.641,1.678,0.549,73.333,694.000
45042.879,44975.020,45395.590,45296.168,45311.012,45359.203,45534.887,45561.172,0.552,0.771,0.434,-0.580,1.740,0.580,73.333,695.000
44588.512,44520.922,44941.137,44841.715,44856.734,44904.746,45080.699,45106.805,0.553,0.770,0.435,-0.610,1.617,0.610,73.333,696.000
47365.672,47297.008,47716.953,47618.605,47632.820,47681.102,47857.680,47882.980,0.556,0.770,0.434,-0.580,1.740,0.580,73.333,697.000
48399.754,48330.820,48750.410,48652.953,48666.723,48714.379,48892.117,48916.707,0.554,0.771,0.435,-0.549,1.709,0.519,73.333,698.000
45843.340,45775.391,46195.781,46096.719,46111.203,46159.574,46336.152,46361.453,0.555,0.770,0.436,-0.549,1.648,0.488,73.333,699.000
44723.520,44656.105,45076.586,44976.449,44991.648,45039.930,45216.062,45241.633,0.554,0.770,0.433,-0.488,1.678,0.488,73.333,700.000
47213.594,47145.375,47565.320,47466.703,47481.188,47529.020,47706.223,47730.902,0.554,0.770,0.435,-0.519,1.709,0.488,73.333,701.000
48898.734,48829.801,49249.211,49151.758,49165.438,49213.090,49391.188,49415.328,0.556,0.770,0.436,-0.488,1.709,0.458,73.333,702.000
46691.367,46623.148,47043.539,46944.297,46958.602,47007.332,47183.461,47209.031,0.555,0.770,0.438,-0.549,1.709,0.549,73.333,703.000
44976.184,44908.410,45328.805,45228.848,45243.867,45292.773,45467.832,45493.938,0.555,0.770,0.438,-0.580,1.770,0.519,73.333,704.000
47035.582,46967.363,47387.398,47288.605,47302.910,47351.367,47527.590,47552.801,0.555,0.769,0.436,-0.549,1.709,0.519,73.333,705.000
49262.441,49193.867,49613.098,49515.820,49529.500,49577.066,49755.074,49778.680,0.554,0.771,0.437,-0.519,1.770,0.519,73.333,706.000
47558.973,47490.754,47910.609,47811.812,47826.477,47874.309,48051.066,48075.922,0.552,0.770,0.437,-0.549,1.740,0.519,73.333,707.000
45360.008,45292.324,45712.719,45612.492,45627.871,45676.238,45851.836,45878.121,0.553,0.771,0.436,-0.549,1.770,0.549,73.333,708.000
46865.887,46797.938,47218.242,47119.090,47133.574,47181.762,47358.344,47383.555,0.554,0.769,0.438,-0.580,1.678,0.549,73.333,709.000
49483.098,49414.254,49833.305,49736.031,49749.980,49797.363,49975.730,49999.426,0.554,0.769,0.435,-0.610,1.740,0.519,73.333,710.000
48406.816,48337.887,48757.652,48659.660,48673.699,48721.441,48899.270,48923.500,0.555,0.769,0.435,-0.580,1.678,0.488,73.333,711.000
45862.297,45793.719,46214.559,46115.137,46129.801,46178.168,46354.211,46379.781,0.555,0.769,0.437,-0.610,1.648,0.519,73.333,712.000
46727.934,46659.449,47079.480,46980.777,46995.172,47043.629,47219.672,47245.242,0.554,0.769,0.435,-0.549,1.709,0.580,73.333,713.000
49570.004,49500.445,49919.852,49822.578,49836.434,49883.730,50062.277,50085.613,0.553,0.772,0.436,-0.549,1.740,0.580,73.333,714.000
49204.953,49135.574,49555.430,49457.977,49471.746,49518.949,49697.586,49721.102,0.553,0.772,0.434,-0.488,1.801,0.549,73.333,715.000
46482.602,46414.383,46834.598,46735.531,46749.926,46798.207,46974.520,47000.176,0.554,0.771,0.432,-0.519,1.801,0.488,73.333,716.000
46661.773,46593.645,47013.945,46915.062,46929.188,46977.289,47153.957,47179.262,0.557,0.769,0.431,-0.519,1.740,0.427,73.333,717.000
49549.172,49480.148,49899.645,49802.461,49816.141,49863.348,50041.891,50065.406,0.555,0.769,0.434,-0.580,1.801,0.488,73.333,718.000
49921.371,49851.992,50271.223,50173.945,50187.984,50235.281,50413.914,50436.805,0.556,0.768,0.436,-0.641,1.709,0.519,73.333,719.000
47200.984,47132.590,47552.535,47453.738,47467.953,47516.324,47693.082,47717.938,0.554,0.769,0.434,-0.549,1.740,0.488,73.333,720.000
46682.695,46614.566,47034.688,46935.535,46949.840,46998.480,47174.609,47200.270,0.556,0.770,0.436,-0.549,1.709,0.488,73.333,721.000
49437.949,49368.746,49788.156,49690.879,49704.738,49752.215,49930.043,49954.004,0.555,0.771,0.438,-0.580,1.709,0.488,73.333,722.000
50527.820,50458.352,50877.312,50780.750,50794.430,50841.281,51020.184,51043.250,0.553,0.771,0.438,-0.641,1.709,0.488,73.333,723.000
47993.043,47924.469,48344.055,48245.887,48260.281,48307.844,48484.871,48509.992,0.553,0.771,0.435,-0.763,1.709,0.488,73.333,724.000
46815.820,46747.602,47167.906,47068.844,47083.414,47131.605,47307.828,47333.664,0.554,0.770,0.433,-0.641,1.740,0.519,73.333,725.000
49270.668,49202.273,49621.410,49524.137,49537.996,49585.293,49763.301,49787.172,0.555,0.771,0.434,-0.641,1.709,0.549,73.333,726.000
51006.773,50937.395,51356.086,51259.793,51273.652,51319.965,51499.227,51521.848,0.556,0.770,0.435,-0.702,1.678,0.610,73.333,727.000
48833.914,48765.070,49185.016,49087.027,49101.332,49148.629,49326.367,49350.598,0.554,0.770,0.435,-0.610,1.709,0.580,73.333,728.000
47066.965,46998.566,47419.316,47320.344,47334.559,47382.660,47559.418,47584.184,0.556,0.769,0.435,-0.610,1.801,0.580,73.333,729.000
49078.266,49009.598,49429.367,49331.734,49345.590,49392.617,49570.898,49594.590,0.554,0.771,0.433,-0.519,1.678,0.580,73.333,730.000
51342.496,51273.117,51691.809,51595.695,51609.195,51655.152,51835.398,51857.480,0.556,0.771,0.434,-0.488,1.617,0.519,73.333,731.000
49688.824,49619.891,50039.211,49942.023,49955.973,50002.730,50181.367,50205.059,0.554,0.771,0.433,-0.488,1.678,0.641,73.333,732.000
47448.555,47380.426,47800.371,47702.023,47715.703,47764.160,47940.918,47966.309,0.554,0.772,0.435,-0.458,1.617,0.641,73.333,733.000
48897.395,48828.551,49248.316,49150.953,49164.273,49211.926,49390.027,49414.434,0.553,0.770,0.435,-0.580,1.617,0.641,73.333,734.000
51539.816,51469.723,51888.414,51792.840,51806.070,51851.938,52032.539,52054.445,0.555,0.769,0.434,-0.610,1.587,0.580,73.333,735.000
50525.316,50455.668,50874.449,50778.160,50791.750,50838.152,51017.680,51040.480,0.553,0.773,0.434,-0.580,1.709,0.488,73.333,736.000
47955.582,47886.828,48306.504,48208.512,48222.461,48270.203,48447.496,48472.262,0.554,0.770,0.435,-0.519,1.648,0.519,73.333,737.000
48758.188,48689.703,49109.109,49011.746,49025.066,49072.633,49250.551,49274.961,0.556,0.768,0.431,-0.519,1.678,0.580,73.333,738.000
51609.109,51539.551,51957.617,51862.398,51875.184,51922.301,52101.738,52123.914,0.556,0.770,0.437,-0.549,1.587,0.549,73.333,739.000
51307.180,51237.352,51655.598,51560.379,51573.164,51620.016,51799.543,51821.984,0.555,0.770,0.436,-0.580,1.801,0.580,73.333,740.000
48575.172,48505.969,48925.469,48828.102,48841.691,48889.617,49067.000,49091.676,0.556,0.770,0.437,-0.549,1.770,0.519,73.333,741.000
48689.969,48620.770,49040.086,48942.812,48956.492,49004.324,49182.156,49206.293,0.556,0.770,0.437,-0.580,1.770,0.488,73.333,742.000
51568.070,51498.062,51916.133,51820.555,51833.965,51880.637,52060.434,52082.516,0.554,0.771,0.437,-0.549,1.709,0.427,73.333,743.000
52003.570,51933.922,52351.723,52256.504,52269.824,52315.961,52496.738,52518.199,0.553,0.769,0.435,-0.549,1.709,0.458,73.333,744.000
49289.891,49221.047,49640.188,49543.270,49556.770,49604.426,49783.059,49806.664,0.554,0.771,0.436,-0.458,1.740,0.580,73.333,745.000
48709.641,48641.242,49060.473,48963.109,48976.699,49024.711,49202.449,49226.680,0.555,0.775,0.436,-0.580,1.831,0.580,73.333,746.000
51441.379,51371.641,51789.711,51694.133,51707.543,51754.215,51934.102,51956.008,0.556,0.773,0.436,-0.549,1.801,0.580,73.333,747.000
52591.781,52521.504,52939.035,52844.445,52857.586,52903.453,53084.324,53105.512,0.555,0.772,0.432,-0.519,1.831,0.458,73.333,748.000
50082.035,50012.836,50431.617,50335.504,50348.559,50395.945,50574.758,50597.734,0.553,0.772,0.433,-0.458,1.801,0.519,73.333,749.000
48844.285,48775.176,49194.941,49097.574,49111.254,49158.730,49336.383,49360.969,0.554,0.771,0.432,-0.427,1.740,0.488,73.333,750.000
51262.117,51192.293,51610.895,51514.781,51528.285,51574.508,51754.484,51777.016,0.556,0.770,0.435,-0.427,1.678,0.549,73.333,751.000
53049.543,52978.734,53396.531,53301.852,53315.262,53360.770,53541.641,53562.828,0.554,0.771,0.436,-0.519,1.740,0.519,73.333,752.000
50916.652,50846.645,51265.250,51169.047,51182.637,51229.574,51408.656,51431.457,0.552,0.771,0.436,-0.519,1.709,0.549,73.333,753.000
49098.648,49029.715,49448.855,49351.582,49365.438,49412.824,49591.012,49615.332,0.551,0.770,0.434,-0.458,1.740,0.458,73.333,754.000
51058.719,50989.340,51407.852,51311.652,51325.242,51371.730,51551.441,51573.883,0.553,0.769,0.435,-0.488,1.648,0.427,73.333,755.000
53362.199,53291.566,53709.367,53614.594,53627.918,53673.516,53855.012,53875.395,0.553,0.770,0.438,-0.519,1.709,0.549,73.333,756.000
51760.742,51690.734,52108.891,52013.676,52026.727,52073.129,52253.195,52275.102,0.554,0.772,0.437,-0.580,1.801,0.549,73.333,757.000
49482.383,49413.539,49832.500,49735.672,49749.176,49796.648,49975.016,49998.707,0.556,0.772,0.437,-0.610,1.770,0.549,73.333,758.000
50873.645,50804.355,51223.137,51126.848,51140.258,51187.195,51366.457,51389.168,0.555,0.770,0.438,-0.641,1.740,0.549,73.333,759.000
53540.746,53470.113,53887.645,53793.590,53806.551,53852.148,54033.645,54054.211,0.555,0.769,0.437,-0.610,1.617,0.488,73.333,760.000
52585.434,52515.336,52933.047,52838.453,52851.418,52897.285,53078.242,53099.523,0.553,0.769,0.434,-0.580,1.587,0.488,73.333,761.000
49992.184,49923.160,50341.941,50245.383,50258.793,50306.000,50484.637,50508.059,0.555,0.770,0.435,-0.610,1.709,0.580,73.333,762.000
50730.953,50661.395,51080.266,50984.152,50997.652,51044.324,51223.941,51246.383,0.553,0.771,0.435,-0.641,1.740,0.641,73.333,763.000
53588.219,53517.500,53935.121,53840.973,53854.027,53899.535,54081.301,54101.418,0.555,0.772,0.433,-0.641,1.801,0.641,73.333,764.000
53351.023,53280.660,53698.012,53604.047,53616.832,53662.605,53844.191,53864.488,0.555,0.772,0.435,-0.580,1.831,0.549,73.333,765.000
50612.219,50542.750,50961.801,50865.508,50879.012,50925.590,51105.121,51127.918,0.552,0.771,0.436,-0.519,1.740,0.580,73.333,766.000
50659.160,50589.422,51008.383,50912.090,50925.414,50972.441,51151.613,51174.500,0.554,0.770,0.435,-0.488,1.740,0.519,73.333,767.000
53529.301,53458.492,53876.469,53782.234,53795.375,53840.617,54022.293,54042.406,0.554,0.769,0.435,-0.519,1.617,0.519,73.333,768.000
54030.340,53959.348,54376.879,54282.914,54296.594,54341.117,54523.508,54542.996,0.553,0.771,0.434,-0.549,1.617,0.488,73.333,769.000
51324.793,51255.055,51673.750,51577.547,51591.672,51637.629,51817.605,51839.777,0.553,0.771,0.434,-0.549,1.740,0.580,73.333,770.000
50681.688,50612.309,51031.449,50934.801,50948.656,50994.973,51174.590,51197.211,0.554,0.771,0.433,-0.549,1.678,0.610,73.333,771.000
53389.199,53318.836,53736.637,53642.312,53655.453,53700.426,53882.102,53902.754,0.552,0.771,0.435,-0.549,1.678,0.458,73.333,772.000
54596.641,54525.383,54942.914,54849.039,54862.449,54907.062,55089.633,55109.480,0.557,0.773,0.436,-0.458,1.678,0.519,73.333,773.000
52111.129,52041.121,52459.457,52364.059,52377.648,52423.605,52603.582,52625.664,0.556,0.772,0.432,-0.580,1.709,0.580,73.333,774.000
50814.367,50745.258,51164.219,51068.195,51081.340,51128.367,51307.000,51330.156,0.554,0.771,0.433,-0.397,1.740,0.580,73.333,775.000
53194.562,53124.555,53542.355,53448.031,53460.906,53506.949,53688.266,53708.383,0.554,0.772,0.436,-0.580,1.709,0.580,73.333,776.000
55030.625,54959.367,55376.270,55283.109,55295.984,55341.312,55524.059,55542.656,0.555,0.772,0.436,-0.671,1.678,0.458,73.333,777.000
52937.426,52867.062,53285.129,53190.090,53203.324,53249.547,53430.508,53450.980,0.553,0.771,0.438,-0.610,1.709,0.488,73.333,778.000
51073.828,51004.090,51423.141,51327.117,51340.262,51387.199,51566.730,51588.723,0.552,0.772,0.438,-0.580,1.740,0.549,73.333,779.000
52988.656,52918.113,53335.824,53241.680,53254.555,53300.598,53481.559,53502.391,0.553,0.770,0.435,-0.519,1.831,0.488,73.333,780.000
55327.363,55255.660,55672.746,55579.941,55592.637,55637.250,55820.445,55839.398,0.553,0.771,0.436,-0.641,1.801,0.519,73.333,781.000
53775.887,53705.074,54122.695,54028.996,54041.516,54086.664,54269.145,54288.992,0.554,0.771,0.437,-0.610,1.740,0.641,73.333,782.000
51462.031,51392.117,51810.809,51714.965,51727.930,51774.867,51955.113,51976.570,0.555,0.772,0.435,-0.580,1.801,0.610,73.333,783.000
52796.699,52726.516,53144.227,53049.273,53062.238,53108.641,53289.957,53310.434,0.554,0.771,0.436,-0.549,1.740,0.580,73.333,784.000
55484.812,55413.375,55830.102,55737.027,55749.723,55794.605,55978.160,55996.578,0.554,0.771,0.438,-0.488,1.740,0.549,73.333,785.000
54586.629,54515.727,54932.902,54839.293,54852.348,54897.496,55079.977,55099.824,0.555,0.771,0.439,-0.488,1.740,0.519,73.333,786.000
51972.188,51902.543,52320.875,52225.391,52238.531,52285.203,52465.359,52487.531,0.555,0.771,0.436,-0.488,1.770,0.549,73.333,787.000
52652.129,52582.215,53000.102,52905.152,52918.203,52964.160,53145.387,53166.398,0.555,0.771,0.435,-0.458,1.770,0.580,73.333,788.000
55515.387,55443.773,55860.945,55767.875,55780.746,55825.363,56009.094,56027.242,0.553,0.771,0.437,-0.458,1.770,0.519,73.333,789.000
55341.672,55269.875,55687.496,55593.977,55606.852,55651.914,55835.195,55853.793,0.553,0.773,0.434,-0.549,1.770,0.519,73.333,790.000
52595.535,52525.262,52943.953,52848.824,52861.609,52908.012,53089.238,53110.250,0.552,0.771,0.436,-0.488,1.801,0.519,73.333,791.000
52578.727,52508.633,52926.965,52831.926,52845.160,52891.023,53072.344,53093.531,0.554,0.771,0.437,-0.458,1.648,0.427,73.333,792.000
55439.750,55368.312,55785.219,55691.965,55705.199,55749.543,55933.277,55951.785,0.554,0.772,0.436,-0.519,1.678,0.549,73.333,793.000
56001.316,55929.520,56346.246,56253.441,56266.406,56310.844,56494.754,56512.902,0.554,0.772,0.436,-0.519,1.678,0.580,73.333,794.000
53305.156,53234.348,53652.594,53557.910,53570.875,53616.742,53798.059,53818.621,0.555,0.772,0.436,-0.549,1.678,0.549,73.333,795.000
52600.363,52530.445,52948.602,52853.832,52866.527,52912.484,53093.352,53114.543,0.555,0.772,0.435,-0.580,1.709,0.519,73.333,796.000
55285.969,55214.711,55631.797,55538.723,55551.418,55595.855,55779.137,55797.914,0.557,0.771,0.438,-0.580,1.678,0.580,73.333,797.000
56550.094,56478.121,56895.027,56802.312,56815.277,56859.531,57043.801,57061.234,0.557,0.770,0.436,-0.580,1.587,0.549,73.333,798.000
54088.094,54017.195,54434.816,54340.938,54353.723,54399.141,54581.266,54601.023,0.555,0.769,0.436,-0.397,1.740,0.458,73.333,799.000
52736.352,52666.168,53084.055,52989.371,53002.516,53048.293,53229.879,53250.262,0.555,0.771,0.435,-0.519,1.678,0.610,73.333,800.000
55079.527,55008.539,55425.445,55332.461,55345.336,55389.859,55573.234,55591.742,0.554,0.773,0.438,-0.549,1.740,0.519,73.333,801.000
56961.457,56889.035,57305.496,57213.762,57226.371,57270.000,57454.895,57472.328,0.555,0.772,0.437,-0.580,1.740,0.519,73.333,802.000
54904.203,54832.766,55250.207,55156.777,55170.008,55214.355,55397.281,55416.414,0.553,0.769,0.436,-0.549,1.831,0.458,73.333,803.000
52995.363,52924.730,53342.797,53248.027,53261.617,53307.035,53488.176,53509.094,0.554,0.768,0.437,-0.549,1.801,0.458,73.333,804.000
54863.523,54792.266,55209.527,55116.453,55129.238,55173.852,55357.047,55376.180,0.554,0.770,0.436,-0.488,1.770,0.488,73.333,805.000
57235.758,57163.070,57579.078,57488.062,57500.402,57543.941,57729.105,57746.449,0.553,0.769,0.432,-0.488,1.740,0.519,73.333,806.000
55732.199,55660.586,56077.223,55984.773,55997.383,56041.906,56225.637,56243.965,0.555,0.771,0.434,-0.458,1.678,0.488,73.333,807.000
53382.941,53313.027,53730.469,53636.230,53649.195,53694.703,53876.109,53896.676,0.555,0.772,0.435,-0.519,1.678,0.488,73.333,808.000
54660.566,54589.938,55007.199,54913.590,54926.555,54971.168,55154.004,55173.406,0.555,0.770,0.434,-0.488,1.678,0.519,73.333,809.000
57366.379,57294.141,57710.508,57618.598,57631.562,57675.012,57860.266,57876.984,0.555,0.771,0.433,-0.519,1.648,0.519,73.333,810.000
56524.078,56452.195,56868.652,56776.383,56789.438,56833.246,57018.141,57035.309,0.554,0.772,0.436,-0.458,1.709,0.519,73.333,811.000
53886.570,53815.941,54233.559,54139.414,54152.469,54197.707,54380.277,54399.680,0.554,0.771,0.437,-0.519,1.740,0.610,73.333,812.000
54505.625,54434.816,54852.168,54758.379,54771.254,54816.402,54999.508,55018.645,0.554,0.771,0.433,-0.519,1.709,0.580,73.333,813.000
57375.320,57302.902,57719.270,57627.180,57640.594,57684.043,57869.207,57885.926,0.554,0.770,0.436,-0.549,1.678,0.519,73.333,814.000
57260.074,57187.836,57604.203,57512.203,57525.258,57569.066,57754.051,57770.590,0.557,0.769,0.435,-0.610,1.770,0.549,73.333,815.000
54506.430,54435.797,54852.973,54759.273,54772.594,54817.477,55000.312,55019.270,0.554,0.771,0.433,-0.641,1.801,0.519,73.333,816.000
54430.793,54359.980,54777.156,54683.367,54696.867,54741.660,54924.320,54943.363,0.554,0.771,0.435,-0.580,1.831,0.488,73.333,817.000
57281.801,57209.383,57625.750,57533.750,57546.625,57590.434,57775.598,57792.316,0.552,0.771,0.432,-0.580,1.770,0.519,73.333,818.000
57903.090,57830.672,58246.949,58155.309,58167.914,58211.457,58397.152,58413.516,0.553,0.770,0.435,-0.519,1.740,0.519,73.333,819.000
55220.254,55149.445,55566.262,55473.277,55485.883,55530.855,55714.051,55732.914,0.553,0.771,0.433,-0.519,1.770,0.519,73.333,820.000
54452.695,54381.977,54799.238,54705.988,54718.504,54763.652,54946.312,54965.895,0.552,0.772,0.434,-0.519,1.740,0.549,73.333,821.000
57108.262,57035.934,57452.570,57360.570,57373.445,57417.074,57602.148,57619.402,0.553,0.771,0.435,-0.641,1.648,0.488,73.333,822.000
58436.672,58363.895,58779.547,58688.172,58701.316,58744.500,58930.734,58946.648,0.554,0.770,0.434,-0.580,1.709,0.549,73.333,823.000
56003.281,55932.023,56348.215,56255.766,56269.090,56313.168,56497.078,56515.316,0.556,0.769,0.435,-0.610,1.678,0.580,73.333,824.000
54597.625,54526.992,54943.898,54850.559,54863.789,54908.492,55091.242,55110.730,0.553,0.769,0.436,-0.549,1.709,0.580,73.333,825.000
56902.715,56830.832,57247.289,57154.934,57167.988,57211.797,57396.691,57413.855,0.553,0.770,0.436,-0.519,1.740,0.671,73.333,826.000
58829.438,58755.855,59172.043,59080.938,59093.812,59136.816,59323.590,59339.055,0.553,0.769,0.435,-0.549,1.678,0.641,73.333,827.000
56818.496,56745.809,57162.711,57070.621,57083.316,57127.219,57312.469,57329.457,0.554,0.769,0.432,-0.549,1.770,0.671,73.333,828.000
54864.684,54793.336,55210.957,55117.258,55130.312,55175.016,55358.211,55376.809,0.555,0.770,0.436,-0.519,1.709,0.549,73.333,829.000
56681.613,56609.281,57026.543,56933.652,56946.793,56990.691,57175.855,57192.664,0.555,0.770,0.435,-0.580,1.678,0.519,73.333,830.000
59087.555,59013.613,59429.805,59338.609,59351.840,59394.578,59581.527,59596.727,0.554,0.769,0.436,-0.580,1.740,0.610,73.333,831.000
57638.090,57565.043,57981.410,57889.770,57902.910,57946.273,58131.883,58148.156,0.554,0.770,0.435,-0.549,1.678,0.519,73.333,832.000
55257.449,55186.461,55603.188,55509.934,55523.078,55567.602,55750.797,55769.484,0.554,0.771,0.439,-0.641,1.770,0.580,73.333,833.000
56477.855,56405.793,56822.430,56729.891,56742.945,56786.754,56971.113,56988.727,0.553,0.772,0.434,-0.580,1.709,0.488,73.333,834.000
59200.566,59126.355,59542.727,59451.797,59464.672,59507.320,59694.449,59709.469,0.555,0.771,0.436,-0.580,1.709,0.519,73.333,835.000
58420.398,58346.996,58763.812,58671.902,58684.777,58728.137,58914.375,58929.840,0.554,0.771,0.434,-0.519,1.709,0.549,73.333,836.000
55767.516,55695.723,56113.164,56020.000,56032.965,56077.223,56260.773,56278.836,0.555,0.771,0.435,-0.610,1.740,0.519,73.333,837.000
56324.520,56252.461,56669.363,56576.828,56589.703,56633.332,56817.957,56835.570,0.554,0.772,0.438,-0.519,1.709,0.488,73.333,838.000
59194.484,59120.637,59536.824,59445.539,59458.684,59501.242,59688.371,59703.301,0.554,0.772,0.435,-0.610,1.831,0.580,73.333,839.000
59139.500,59065.828,59481.480,59390.645,59403.875,59446.613,59633.652,59648.672,0.553,0.771,0.435,-0.580,1.831,0.519,73.333,840.000
56384.426,56312.629,56729.176,56636.730,56649.516,56693.773,56878.398,56895.742,0.555,0.769,0.437,-0.671,1.770,0.488,73.333,841.000
56244.500,56172.527,56589.254,56496.629,56509.414,56554.027,56738.117,56755.461,0.554,0.772,0.439,-0.702,1.709,0.641,73.333,842.000
59080.043,59006.195,59422.742,59331.547,59344.332,59387.516,59574.375,59589.219,0.554,0.771,0.435,-0.641,1.770,0.519,73.333,843.000
59760.969,59686.402,60102.324,60012.023,60024.809,60067.543,60254.941,60269.426,0.553,0.771,0.436,-0.580,1.740,0.458,73.333,844.000
57090.023,57017.066,57433.523,57341.703,57354.758,57398.387,57583.281,57600.539,0.555,0.771,0.434,-0.549,1.678,0.427,73.333,845.000
56265.512,56193.094,56609.641,56517.371,56530.246,56574.145,56758.504,56776.207,0.555,0.770,0.432,-0.580,1.648,0.488,73.333,846.000
58894.703,58820.852,59236.684,59146.207,59158.453,59201.191,59388.051,59403.250,0.557,0.768,0.433,-0.549,1.709,0.458,73.333,847.000
60266.832,60191.910,60607.742,60517.977,60530.227,60572.516,60760.359,60774.754,0.555,0.768,0.433,-0.488,1.740,0.488,73.333,848.000
57861.605,57788.383,58204.660,58113.285,58126.250,58168.988,58354.953,58371.492,0.554,0.767,0.432,-0.427,1.709,0.488,73.333,849.000
56406.328,56334.445,56750.723,56658.457,56671.508,56714.961,56899.855,56917.289,0.552,0.769,0.436,-0.427,1.770,0.427,73.333,850.000
58672.707,58599.391,59015.223,58924.027,58936.992,58979.910,59166.320,59181.879,0.553,0.769,0.435,-0.458,1.801,0.519,73.333,851.000
60643.953,60569.117,60984.770,60894.469,60907.613,60949.992,61137.836,61151.781,0.555,0.771,0.436,-0.427,1.831,0.580,73.333,852.000
58674.941,58601.449,59017.191,58926.711,58939.406,58982.500,59168.469,59184.113,0.554,0.771,0.438,-0.519,1.740,0.610,73.333,853.000
56678.750,56606.777,57022.789,56931.059,56943.754,56987.652,57172.188,57189.625,0.554,0.771,0.435,-0.549,1.770,0.610,73.333,854.000
58448.562,58375.340,58791.172,58700.066,58712.852,58755.945,58942.270,58958.539,0.555,0.771,0.435,-0.610,1.587,0.580,73.333,855.000
60883.918,60808.551,61223.844,61134.438,61147.043,61189.156,61377.984,61391.930,0.554,0.771,0.434,-0.488,1.587,0.641,73.333,856.000
59485.684,59411.297,59826.594,59736.648,59749.168,59792.082,59979.391,59994.500,0.552,0.770,0.435,-0.519,1.709,0.580,73.333,857.000
57075.719,57003.656,57419.668,57328.023,57340.453,57384.172,57569.246,57586.234,0.553,0.770,0.438,-0.488,1.709,0.610,73.333,858.000
58244.270,58171.312,58587.500,58496.215,58508.465,58551.559,58738.062,58753.707,0.553,0.770,0.436,-0.458,1.678,0.580,73.333,859.000
60987.453,60911.992,61327.734,61238.148,61250.758,61292.777,61481.516,61494.836,0.554,0.771,0.435,-0.519,1.709,0.488,73.333,860.000
60267.281,60192.445,60608.098,60518.066,60530.582,60573.410,60761.074,60775.199,0.553,0.771,0.436,-0.458,1.709,0.519,73.333,861.000
57595.172,57522.039,57938.227,57846.676,57859.012,57903.090,58088.344,58104.883,0.555,0.770,0.435,-0.519,1.678,0.519,73.333,862.000
58091.383,58018.516,58434.438,58343.152,58355.578,58399.031,58585.355,58601.000,0.553,0.769,0.436,-0.488,1.770,0.580,73.333,863.000
60965.727,60890.445,61306.188,61215.977,61228.852,61270.961,61460.238,61473.023,0.552,0.771,0.436,-0.519,1.801,0.580,73.333,864.000
60973.953,60898.582,61314.324,61224.203,61236.898,61279.008,61468.375,61481.516,0.553,0.771,0.434,-0.610,1.770,0.671,73.333,865.000
58218.965,58145.473,58561.930,58470.734,58483.430,58526.438,58712.852,58729.031,0.554,0.770,0.436,-0.702,1.648,0.488,73.333,866.000
58017.980,57944.398,58360.676,58269.480,58282.086,58325.449,58511.773,58527.688,0.553,0.771,0.434,-0.641,1.648,0.549,73.333,867.000
60845.117,60769.301,61184.863,61094.922,61107.793,61150.262,61338.824,61352.055,0.556,0.770,0.434,-0.549,1.648,0.610,73.333,868.000
61587.195,61511.379,61926.496,61837.266,61850.051,61891.984,62081.527,62093.863,0.555,0.770,0.435,-0.488,1.770,0.519,73.333,869.000
58930.465,58856.527,59272.180,59181.609,59194.395,59237.402,59424.441,59439.102,0.555,0.771,0.435,-0.519,1.709,0.458,73.333,870.000
58047.395,57973.992,58390.000,58298.805,58311.590,58355.043,58541.277,58557.012,0.554,0.770,0.436,-0.519,1.709,0.519,73.333,871.000
60653.070,60577.609,60993.176,60903.410,60916.105,60958.664,61147.223,61160.543,0.553,0.770,0.435,-0.549,1.770,0.519,73.333,872.000
62077.324,62001.148,62416.445,62326.859,62340.000,62381.844,62571.836,62583.637,0.553,0.769,0.432,-0.519,1.740,0.610,73.333,873.000
59697.223,59623.012,60038.844,59948.188,59961.418,60003.977,60191.375,60205.770,0.555,0.770,0.436,-0.488,1.648,0.549,73.333,874.000
58187.227,58114.000,58530.102,58438.637,58451.602,58494.875,58680.930,58696.758,0.555,0.770,0.436,-0.458,1.770,0.549,73.333,875.000
60413.996,60339.254,60754.816,60664.516,60677.301,60719.945,60907.969,60922.098,0.552,0.771,0.433,-0.519,1.801,0.610,73.333,876.000
62427.172,62351.000,62766.293,62676.797,62689.672,62731.695,62921.684,62933.754,0.553,0.770,0.433,-0.580,1.740,0.732,73.333,877.000
60493.926,60419.539,60835.191,60744.535,60757.320,60799.699,60988.613,61002.293,0.555,0.771,0.434,-0.702,1.678,0.549,73.333,878.000
58451.426,58378.109,58794.031,58702.746,58715.531,58758.805,58945.488,58961.043,0.552,0.770,0.437,-0.641,1.678,0.641,73.333,879.000
60169.648,60094.992,60510.555,60420.164,60433.129,60475.957,60663.711,60677.656,0.555,0.770,0.432,-0.641,1.709,0.641,73.333,880.000
62637.727,62560.836,62976.223,62886.902,62899.867,62941.531,63132.059,63143.680,0.555,0.770,0.435,-0.641,1.740,0.549,73.333,881.000
61288.754,61212.492,61628.590,61538.379,61551.344,61593.812,61782.816,61795.961,0.555,0.770,0.434,-0.580,1.770,0.641,73.333,882.000
58844.457,58770.430,59186.797,59095.691,59108.566,59151.926,59338.430,59354.078,0.553,0.769,0.435,-0.519,1.740,0.580,73.333,883.000
59951.496,59876.750,60293.117,60202.461,60214.977,60257.891,60445.648,60460.219,0.554,0.771,0.434,-0.549,1.617,0.488,73.333,884.000
62712.562,62635.582,63051.680,62962.453,62974.703,63016.633,63207.160,63218.781,0.554,0.771,0.435,-0.549,1.678,0.458,73.333,885.000
62047.195,61970.750,62386.852,62297.445,62309.691,62352.070,62541.883,62554.133,0.554,0.771,0.438,-0.549,1.740,0.488,73.333,886.000
59359.797,59285.680,59701.781,59610.855,59623.371,59666.824,59853.773,59868.613,0.553,0.769,0.438,-0.580,1.709,0.488,73.333,887.000
59795.211,59720.914,60137.016,60046.445,60058.961,60102.234,60289.363,60303.938,0.552,0.773,0.437,-0.519,1.678,0.519,73.333,888.000
62669.824,62593.469,63008.766,62919.449,62931.875,62974.074,63164.512,63176.316,0.554,0.772,0.434,-0.549,1.709,0.580,73.333,889.000
62738.578,62662.137,63077.430,62987.934,63000.809,63042.562,63233.355,63244.980,0.555,0.771,0.433,-0.610,1.678,0.580,73.333,890.000
59983.680,59909.203,60325.035,60234.199,60246.984,60289.988,60477.652,60492.137,0.557,0.771,0.437,-0.549,1.740,0.580,73.333,891.000
59721.539,59647.332,60063.344,59972.594,59984.844,60028.207,60215.422,60230.445,0.556,0.769,0.435,-0.610,1.709,0.519,73.333,892.000
62532.496,62456.230,62872.242,62782.566,62795.172,62837.285,63027.363,63039.613,0.555,0.770,0.436,-0.580,1.709,0.641,73.333,893.000
63335.547,63258.660,63674.492,63584.992,63597.777,63639.266,63830.863,63841.859,0.556,0.771,0.437,-0.549,1.709,0.519,73.333,894.000
60697.418,60622.941,61038.684,60948.203,60960.719,61003.637,61192.285,61206.055,0.555,0.771,0.437,-0.580,1.831,0.610,73.333,895.000
59756.141,59682.379,60098.391,60007.465,60020.160,60063.344,60250.918,60265.223,0.555,0.770,0.439,-0.580,1.831,0.488,73.333,896.000
62330.613,62254.617,62670.270,62580.328,62593.383,62635.492,62825.840,62837.551,0.554,0.769,0.434,-0.580,1.678,0.519,73.333,897.000
63811.910,63734.570,64149.867,64060.906,64074.051,64115.805,64306.957,64317.773,0.555,0.770,0.436,-0.610,1.770,0.427,73.333,898.000
61470.699,61395.148,61810.711,61721.039,61733.824,61776.113,61965.387,61978.352,0.553,0.771,0.432,-0.580,1.678,0.488,73.333,899.000
59909.473,59835.621,60250.918,60160.707,60173.848,60216.496,60403.715,60418.199,0.554,0.771,0.434,-0.580,1.678,0.519,73.333,900.000
62094.402,62018.582,62434.238,62345.008,62357.258,62399.457,62589.000,62601.695,0.553,0.771,0.434,-0.580,1.709,0.580,73.333,901.000
64152.461,64074.496,64490.328,64401.547,64413.977,64455.816,64647.418,64658.055,0.555,0.771,0.437,-0.549,1.678,0.610,73.333,902.000
62267.312,62190.961,62606.703,62517.207,62529.902,62572.012,62762.004,62774.250,0.555,0.771,0.438,-0.610,1.678,0.610,73.333,903.000
60186.457,60111.980,60527.363,60437.602,60450.117,60492.406,60680.785,60695.004,0.555,0.772,0.438,-0.671,1.709,0.488,73.333,904.000
61851.215,61775.219,62191.051,62101.645,62114.160,62156.090,62345.812,62358.957,0.554,0.771,0.436,-0.641,1.770,0.549,73.333,905.000
64348.531,64270.297,64686.129,64597.348,64609.867,64651.797,64843.574,64854.215,0.554,0.770,0.439,-0.549,1.709,0.610,73.333,906.000
63056.688,62979.531,63395.273,63306.312,63318.828,63361.117,63551.734,63563.000,0.555,0.769,0.438,-0.549,1.740,0.519,73.333,907.000
60586.551,60511.898,60927.461,60837.695,60850.125,60892.594,61081.152,61094.742,0.555,0.770,0.437,-0.549,1.648,0.549,73.333,908.000
61635.477,61559.926,61975.668,61885.992,61898.777,61940.621,62129.805,62143.129,0.554,0.770,0.439,-0.549,1.648,0.519,73.333,909.000
64409.863,64332.078,64747.730,64658.594,64671.469,64713.043,64905.266,64915.547,0.553,0.771,0.435,-0.519,1.801,0.458,73.333,910.000
63808.062,63730.816,64146.469,64057.598,64070.027,64111.781,64303.559,64314.285,0.554,0.771,0.437,-0.488,1.770,0.427,73.333,911.000
61107.617,61031.977,61447.898,61358.133,61371.008,61413.207,61602.215,61615.449,0.553,0.771,0.435,-0.519,1.801,0.458,73.333,912.000
61476.508,61400.961,61816.883,61727.117,61739.633,61782.102,61971.199,61984.160,0.553,0.770,0.436,-0.427,1.709,0.519,73.333,913.000
64348.262,64270.031,64685.594,64597.262,64609.418,64651.082,64843.398,64853.680,0.551,0.770,0.434,-0.549,1.770,0.641,73.333,914.000
64484.430,64406.375,64821.582,64733.336,64745.855,64787.250,64979.477,64989.758,0.555,0.770,0.434,-0.549,1.770,0.580,73.333,915.000
61730.066,61654.609,62069.812,61980.406,61993.012,62034.945,62224.488,62237.629,0.554,0.771,0.437,-0.580,1.801,0.549,73.333,916.000
61406.773,61331.492,61746.785,61657.379,61669.809,61711.918,61901.102,61914.602,0.555,0.770,0.437,-0.549,1.801,0.549,73.333,917.000
64203.602,64125.637,64541.023,64452.512,64464.938,64506.602,64698.824,64709.020,0.554,0.769,0.436,-0.641,1.709,0.458,73.333,918.000
65064.949,64986.539,65401.566,65313.141,65325.746,65367.590,65560.438,65570.094,0.554,0.770,0.437,-0.610,1.678,0.580,73.333,919.000
62441.031,62364.855,62780.332,62691.012,62703.531,62746.090,62935.988,62948.238,0.555,0.771,0.435,-0.610,1.770,0.427,73.333,920.000
61439.852,61364.395,61780.047,61690.641,61702.797,61745.445,61934.363,61947.684,0.553,0.771,0.435,-0.610,1.801,0.549,73.333,921.000
63983.840,63906.145,64321.887,64233.461,64245.441,64287.465,64478.887,64490.062,0.552,0.770,0.435,-0.458,1.801,0.549,73.333,922.000
65519.137,65439.652,65855.750,65767.508,65779.844,65821.422,66014.453,66024.195,0.552,0.770,0.435,-0.488,1.709,0.488,73.333,923.000
63207.430,63130.090,63546.012,63456.965,63469.211,63511.410,63702.117,63713.738,0.555,0.768,0.433,-0.366,1.709,0.549,73.333,924.000
61595.152,61519.691,61935.348,61845.848,61858.098,61900.656,62089.750,62102.984,0.553,0.769,0.432,-0.427,1.770,0.488,73.333,925.000
63739.223,63661.793,64077.090,63988.488,64001.094,64042.848,64234.266,64245.441,0.554,0.771,0.431,-0.458,1.831,0.397,73.333,926.000
65841.086,65761.875,66177.797,66089.102,66101.977,66143.289,66336.766,66345.969,0.555,0.770,0.434,-0.580,1.770,0.519,73.333,927.000
64000.020,63922.504,64338.246,64249.555,64261.984,64303.648,64495.605,64506.602,0.555,0.768,0.437,-0.641,1.709,0.519,73.333,928.000
61876.426,61800.789,62216.441,62126.945,62139.641,62181.840,62371.652,62384.438,0.554,0.770,0.438,-0.671,1.648,0.488,73.333,929.000
63493.172,63415.836,63831.488,63742.441,63755.137,63797.066,63988.039,63999.574,0.553,0.770,0.434,-0.580,1.740,0.519,73.333,930.000
66021.781,65942.297,66357.680,66269.703,66281.867,66323.438,66516.914,66526.039,0.553,0.768,0.433,-0.610,1.709,0.488,73.333,931.000
64782.957,64704.281,65119.664,65031.332,65043.848,65085.332,65277.738,65287.930,0.554,0.771,0.433,-0.549,1.678,0.610,73.333,932.000
62284.750,62207.949,62623.602,62534.195,62546.891,62588.820,62778.812,62791.328,0.555,0.771,0.434,-0.671,1.678,0.580,73.333,933.000
63276.809,63199.023,63614.500,63525.539,63538.680,63580.254,63771.141,63782.672,0.552,0.771,0.435,-0.580,1.740,0.580,73.333,934.000
66065.859,65985.570,66401.047,66312.977,66325.945,66367.070,66560.641,66569.492,0.554,0.771,0.436,-0.580,1.770,0.519,73.333,935.000
65524.141,65444.211,65859.867,65771.891,65784.586,65825.805,66018.742,66028.578,0.554,0.770,0.436,-0.580,1.801,0.549,73.333,936.000
62811.176,62734.020,63149.941,63061.070,63073.586,63115.430,63306.043,63318.113,0.554,0.771,0.434,-0.549,1.801,0.397,73.333,937.000
63123.297,63046.137,63461.793,63372.742,63385.258,63426.922,63618.074,63629.609,0.553,0.770,0.434,-0.427,1.831,0.427,73.333,938.000
65996.930,65916.906,66332.562,66244.492,66257.188,66297.961,66492.062,66501.180,0.552,0.771,0.434,-0.488,1.740,0.397,73.333,939.000
66188.797,66109.398,66524.695,66436.633,66449.234,66490.188,66684.555,66693.406,0.554,0.770,0.435,-0.488,1.709,0.427,73.333,940.000
